* Measurement data measured by REW V5.31.3
* Source: PCM: default, no input selected, 2, volume: no control
* Format: 8192-point spectrum using Hann window and exponential averaging 0.97 
* Dated: Mar 9, 2025 12:56:49 PM
* REW Settings:
*  C-weighting compensation: Off
*  Target level: 75.0 dB
* Note: OSDEHA ANODE-OUTPUT; 8192-point spectrum using Hann window and exponential averaging 0.97  Input RMS 13.33 V 13.33 VC, 13.33 VA 13.33 V 22 - 22k UNW 889.0 uV >22k Distortion at 1,000.0 Hz, -17.51 dBFS: Gain: 29.34 dB THD: 0.012 % based on 21 harmonics  [0..22800 Hz] HHD: 0.0027 %  [10 .. 22] N: 0.093 %  [0..22800 Hz] N+D: 4.492 mV A THD+N: 0.094 %  [0..22800 Hz] SNR: 60.6 dB ENOB: 13.2 bits 2nd harmonic 0.011 % -148 deg 3rd harmonic 0.00094 % 112 deg 4th harmonic 0.00075 % 156 deg 5th harmonic 0.00076 % -7 deg 6th harmonic 0.00075 % -151 deg 7th harmonic 0.00083 % -172 deg 8th harmonic 0.00083 % 168 deg 9th harmonic 0.00075 % -87 deg
* Measurement: OSDEHA A-OUT 13.3V
* Smoothing: None
* Frequency Step: 5.859375 Hz
* Start Frequency: 5.859375 Hz
*
* Freq(Hz); V(V)
5.859375; 7.61829E-4
11.718750; 3.78818E-4
17.578125; 2.16756E-4
23.437500; 1.55962E-4
29.296875; 1.43628E-4
35.156250; 1.42953E-4
41.015625; 1.43353E-4
46.875000; 3.78341E-4
52.734375; 3.92117E-4
58.593750; 1.57699E-4
64.453125; 1.33200E-4
70.312500; 1.47558E-4
76.171875; 1.42565E-4
82.031250; 1.38388E-4
87.890625; 1.88319E-4
93.750000; 4.96603E-3
99.609375; 1.11314E-2
105.468750; 6.19653E-3
111.328125; 1.96205E-4
117.187500; 1.29332E-4
123.046875; 1.20418E-4
128.906250; 1.26724E-4
134.765625; 1.19437E-4
140.625000; 1.20796E-4
146.484375; 1.40850E-4
152.343750; 1.49240E-4
158.203125; 1.19099E-4
164.062500; 1.13161E-4
169.921875; 1.11769E-4
175.781250; 1.04036E-4
181.640625; 1.09330E-4
187.500000; 1.11267E-4
193.359375; 6.73928E-4
199.218750; 1.64932E-3
205.078125; 1.02900E-3
210.937500; 1.43064E-4
216.796875; 1.06766E-4
222.656250; 1.19030E-4
228.515625; 1.30686E-4
234.375000; 1.23956E-4
240.234375; 1.21826E-4
246.093750; 1.46831E-4
251.953125; 1.49251E-4
257.812500; 1.13225E-4
263.671875; 1.12992E-4
269.531250; 1.07687E-4
275.390625; 1.07940E-4
281.250000; 1.15323E-4
287.109375; 1.16726E-4
292.968750; 1.45676E-4
298.828125; 2.68398E-4
304.687500; 2.11950E-4
310.546875; 1.25699E-4
316.406250; 1.13256E-4
322.265625; 1.04940E-4
328.125000; 1.04342E-4
333.984375; 1.12874E-4
339.843750; 1.10694E-4
345.703125; 1.38649E-4
351.562500; 1.69282E-4
357.421875; 1.28865E-4
363.281250; 1.22083E-4
369.140625; 1.21456E-4
375.000000; 1.10278E-4
380.859375; 9.87940E-5
386.718750; 9.78866E-5
392.578125; 1.73816E-4
398.437500; 4.90060E-4
404.296875; 3.77892E-4
410.156250; 1.16941E-4
416.015625; 1.13120E-4
421.875000; 1.09458E-4
427.734375; 1.10983E-4
433.593750; 1.16908E-4
439.453125; 1.12869E-4
445.312500; 1.23946E-4
451.171875; 1.35572E-4
457.031250; 1.15535E-4
462.890625; 1.19748E-4
468.750000; 1.14028E-4
474.609375; 1.01706E-4
480.468750; 1.14530E-4
486.328125; 1.29491E-4
492.187500; 1.42080E-4
498.046875; 3.39657E-4
503.906250; 2.85642E-4
509.765625; 1.11998E-4
515.625000; 1.04418E-4
521.484375; 1.00031E-4
527.343750; 1.18727E-4
533.203125; 1.23465E-4
539.062500; 1.16374E-4
544.921875; 1.21782E-4
550.781250; 1.09068E-4
556.640625; 9.44183E-5
562.500000; 1.05316E-4
568.359375; 1.12603E-4
574.218750; 1.13789E-4
580.078125; 1.02777E-4
585.937500; 1.14747E-4
591.796875; 1.12860E-4
597.656250; 1.21131E-4
603.515625; 1.13669E-4
609.375000; 1.06921E-4
615.234375; 1.07745E-4
621.093750; 1.05377E-4
626.953125; 1.06821E-4
632.812500; 1.13563E-4
638.671875; 1.12839E-4
644.531250; 1.26361E-4
650.390625; 1.42108E-4
656.250000; 1.32707E-4
662.109375; 1.20849E-4
667.968750; 1.10494E-4
673.828125; 1.09923E-4
679.687500; 1.11828E-4
685.546875; 1.11756E-4
691.406250; 1.13450E-4
697.265625; 2.16983E-4
703.125000; 2.27407E-4
708.984375; 1.16726E-4
714.843750; 1.14589E-4
720.703125; 1.13824E-4
726.562500; 1.33508E-4
732.421875; 1.19288E-4
738.281250; 1.13898E-4
744.140625; 1.24911E-4
750.000000; 1.55165E-4
755.859375; 1.26504E-4
761.718750; 1.18963E-4
767.578125; 1.20580E-4
773.437500; 1.23578E-4
779.296875; 1.28102E-4
785.156250; 1.20826E-4
791.015625; 1.38222E-4
796.875000; 1.66374E-4
802.734375; 2.08568E-4
808.593750; 1.53500E-4
814.453125; 1.56459E-4
820.312500; 1.80282E-4
826.171875; 1.60592E-4
832.031250; 1.92161E-4
837.890625; 1.96973E-4
843.750000; 2.26457E-4
849.609375; 2.55174E-4
855.468750; 2.81647E-4
861.328125; 2.98328E-4
867.187500; 3.24290E-4
873.046875; 3.83480E-4
878.906250; 4.40785E-4
884.765625; 4.83632E-4
890.625000; 5.71384E-4
896.484375; 7.32080E-4
902.343750; 7.32070E-4
908.203125; 1.00070E-3
914.062500; 1.17104E-3
919.921875; 1.44951E-3
925.781250; 1.81891E-3
931.640625; 2.33981E-3
937.500000; 3.04722E-3
943.359375; 4.11889E-3
949.218750; 5.71449E-3
955.078125; 8.30556E-3
960.937500; 1.26788E-2
966.796875; 2.08364E-2
972.656250; 3.78789E-2
978.515625; 8.05098E-2
984.375000; 2.25416E-1
990.234375; 1.23978E0
996.093750; 9.91826E0
1001.953125; 1.23978E1
1007.812500; 3.54225E0
1013.671875; 3.54193E-1
1019.531250; 1.09016E-1
1025.390625; 4.76749E-2
1031.250000; 2.51008E-2
1037.109375; 1.48311E-2
1042.968750; 9.48468E-3
1048.828125; 6.45825E-3
1054.687500; 4.56051E-3
1060.546875; 3.36191E-3
1066.406250; 2.53910E-3
1072.265625; 1.98967E-3
1078.125000; 1.55906E-3
1083.984375; 1.24658E-3
1089.843750; 1.03612E-3
1095.703125; 8.55964E-4
1101.562500; 7.10718E-4
1107.421875; 6.18513E-4
1113.281250; 5.14520E-4
1119.140625; 4.46126E-4
1125.000000; 3.91433E-4
1130.859375; 3.45114E-4
1136.718750; 3.13913E-4
1142.578125; 2.81878E-4
1148.437500; 2.43051E-4
1154.296875; 2.29182E-4
1160.156250; 2.05222E-4
1166.015625; 1.87019E-4
1171.875000; 1.88028E-4
1177.734375; 1.74002E-4
1183.593750; 1.46028E-4
1189.453125; 1.61193E-4
1195.312500; 1.41443E-4
1201.171875; 1.74617E-4
1207.031250; 1.39865E-4
1212.890625; 1.38920E-4
1218.750000; 1.42596E-4
1224.609375; 1.21615E-4
1230.468750; 1.25529E-4
1236.328125; 1.18732E-4
1242.187500; 1.24132E-4
1248.046875; 1.33341E-4
1253.906250; 1.33789E-4
1259.765625; 1.06727E-4
1265.625000; 1.06458E-4
1271.484375; 1.16544E-4
1277.343750; 1.19137E-4
1283.203125; 1.01662E-4
1289.062500; 1.08488E-4
1294.921875; 1.16029E-4
1300.781250; 1.17464E-4
1306.640625; 1.13801E-4
1312.500000; 1.11968E-4
1318.359375; 1.05138E-4
1324.218750; 1.15798E-4
1330.078125; 1.09975E-4
1335.937500; 1.07077E-4
1341.796875; 1.05727E-4
1347.656250; 1.02821E-4
1353.515625; 1.05447E-4
1359.375000; 1.03889E-4
1365.234375; 9.20647E-5
1371.093750; 1.10683E-4
1376.953125; 1.10626E-4
1382.812500; 1.06311E-4
1388.671875; 1.00089E-4
1394.531250; 1.05767E-4
1400.390625; 1.09008E-4
1406.250000; 1.01535E-4
1412.109375; 1.03719E-4
1417.968750; 1.05294E-4
1423.828125; 1.04179E-4
1429.687500; 1.10506E-4
1435.546875; 1.13469E-4
1441.406250; 1.04487E-4
1447.265625; 1.07474E-4
1453.125000; 1.15897E-4
1458.984375; 1.07098E-4
1464.843750; 1.12585E-4
1470.703125; 1.12465E-4
1476.562500; 1.03223E-4
1482.421875; 1.01182E-4
1488.281250; 9.67981E-5
1494.140625; 1.12491E-4
1500.000000; 1.15448E-4
1505.859375; 1.13200E-4
1511.718750; 1.07344E-4
1517.578125; 1.20209E-4
1523.437500; 1.07157E-4
1529.296875; 1.05868E-4
1535.156250; 1.04991E-4
1541.015625; 9.91107E-5
1546.875000; 9.98925E-5
1552.734375; 1.10544E-4
1558.593750; 1.07637E-4
1564.453125; 1.15022E-4
1570.312500; 1.03398E-4
1576.171875; 1.02413E-4
1582.031250; 1.03570E-4
1587.890625; 9.53861E-5
1593.750000; 1.03171E-4
1599.609375; 1.08582E-4
1605.468750; 1.04143E-4
1611.328125; 1.23362E-4
1617.187500; 1.01642E-4
1623.046875; 9.84258E-5
1628.906250; 9.24019E-5
1634.765625; 1.05971E-4
1640.625000; 1.14344E-4
1646.484375; 1.12920E-4
1652.343750; 1.10395E-4
1658.203125; 1.07776E-4
1664.062500; 1.05072E-4
1669.921875; 9.87881E-5
1675.781250; 1.01239E-4
1681.640625; 1.06752E-4
1687.500000; 1.10834E-4
1693.359375; 9.99292E-5
1699.218750; 1.14935E-4
1705.078125; 1.02233E-4
1710.937500; 1.20738E-4
1716.796875; 1.25197E-4
1722.656250; 9.90299E-5
1728.515625; 1.00401E-4
1734.375000; 9.66000E-5
1740.234375; 1.03462E-4
1746.093750; 1.08621E-4
1751.953125; 1.10321E-4
1757.812500; 1.03937E-4
1763.671875; 1.11257E-4
1769.531250; 1.14456E-4
1775.390625; 1.07623E-4
1781.250000; 1.09483E-4
1787.109375; 1.06000E-4
1792.968750; 9.92610E-5
1798.828125; 1.09194E-4
1804.687500; 1.03452E-4
1810.546875; 1.01333E-4
1816.406250; 1.08912E-4
1822.265625; 1.07518E-4
1828.125000; 1.06998E-4
1833.984375; 1.04085E-4
1839.843750; 9.51056E-5
1845.703125; 1.03304E-4
1851.562500; 1.01736E-4
1857.421875; 9.41747E-5
1863.281250; 1.11193E-4
1869.140625; 1.08769E-4
1875.000000; 1.10917E-4
1880.859375; 1.10178E-4
1886.718750; 1.12069E-4
1892.578125; 1.00529E-4
1898.437500; 1.05267E-4
1904.296875; 1.13619E-4
1910.156250; 1.05571E-4
1916.015625; 1.14247E-4
1921.875000; 1.07749E-4
1927.734375; 1.01586E-4
1933.593750; 1.09544E-4
1939.453125; 1.07573E-4
1945.312500; 9.88565E-5
1951.171875; 1.02953E-4
1957.031250; 1.14536E-4
1962.890625; 1.09965E-4
1968.750000; 9.62718E-5
1974.609375; 1.05754E-4
1980.468750; 1.01147E-4
1986.328125; 1.12835E-4
1992.187500; 3.95109E-4
1998.046875; 1.36130E-3
2003.906250; 1.10119E-3
2009.765625; 1.95645E-4
2015.625000; 1.16423E-4
2021.484375; 1.25303E-4
2027.343750; 1.14885E-4
2033.203125; 1.04882E-4
2039.062500; 1.07033E-4
2044.921875; 1.06217E-4
2050.781250; 1.00444E-4
2056.640625; 1.03611E-4
2062.500000; 1.11539E-4
2068.359375; 1.17170E-4
2074.218750; 1.12178E-4
2080.078125; 1.11895E-4
2085.937500; 1.15880E-4
2091.796875; 1.11398E-4
2097.656250; 1.07585E-4
2103.515625; 1.07086E-4
2109.375000; 9.97320E-5
2115.234375; 1.00277E-4
2121.093750; 1.02539E-4
2126.953125; 9.79240E-5
2132.812500; 1.03009E-4
2138.671875; 1.00554E-4
2144.531250; 1.18595E-4
2150.390625; 1.16135E-4
2156.250000; 9.83074E-5
2162.109375; 1.06674E-4
2167.968750; 1.13490E-4
2173.828125; 1.02927E-4
2179.687500; 9.76736E-5
2185.546875; 1.15445E-4
2191.406250; 1.08699E-4
2197.265625; 1.11169E-4
2203.125000; 1.11284E-4
2208.984375; 1.12075E-4
2214.843750; 1.09960E-4
2220.703125; 1.14959E-4
2226.562500; 1.10084E-4
2232.421875; 1.09892E-4
2238.281250; 1.13166E-4
2244.140625; 1.09359E-4
2250.000000; 1.10122E-4
2255.859375; 1.22298E-4
2261.718750; 1.13605E-4
2267.578125; 1.07332E-4
2273.437500; 9.16043E-5
2279.296875; 1.04398E-4
2285.156250; 1.08185E-4
2291.015625; 1.09441E-4
2296.875000; 1.03759E-4
2302.734375; 9.67938E-5
2308.593750; 9.93704E-5
2314.453125; 9.81532E-5
2320.312500; 1.01284E-4
2326.171875; 9.56609E-5
2332.031250; 1.04539E-4
2337.890625; 1.03976E-4
2343.750000; 1.06511E-4
2349.609375; 1.08049E-4
2355.468750; 1.10403E-4
2361.328125; 1.12874E-4
2367.187500; 1.14696E-4
2373.046875; 1.08233E-4
2378.906250; 1.15630E-4
2384.765625; 1.07615E-4
2390.625000; 9.98763E-5
2396.484375; 1.08275E-4
2402.343750; 1.13857E-4
2408.203125; 1.08786E-4
2414.062500; 1.07349E-4
2419.921875; 9.65594E-5
2425.781250; 9.94218E-5
2431.640625; 1.05775E-4
2437.500000; 9.94796E-5
2443.359375; 1.04957E-4
2449.218750; 1.06711E-4
2455.078125; 1.07330E-4
2460.937500; 1.09122E-4
2466.796875; 1.12234E-4
2472.656250; 1.12828E-4
2478.515625; 1.02898E-4
2484.375000; 1.00810E-4
2490.234375; 8.79176E-5
2496.093750; 9.64168E-5
2501.953125; 1.07337E-4
2507.812500; 1.13342E-4
2513.671875; 1.07468E-4
2519.531250; 1.01432E-4
2525.390625; 9.53454E-5
2531.250000; 9.71388E-5
2537.109375; 1.00870E-4
2542.968750; 1.02842E-4
2548.828125; 1.09450E-4
2554.687500; 1.05275E-4
2560.546875; 1.01913E-4
2566.406250; 1.02828E-4
2572.265625; 9.90303E-5
2578.125000; 9.96766E-5
2583.984375; 1.07890E-4
2589.843750; 1.17482E-4
2595.703125; 1.03557E-4
2601.562500; 1.17404E-4
2607.421875; 1.09656E-4
2613.281250; 1.02122E-4
2619.140625; 1.04750E-4
2625.000000; 1.05893E-4
2630.859375; 1.08694E-4
2636.718750; 1.19925E-4
2642.578125; 1.11767E-4
2648.437500; 1.09715E-4
2654.296875; 1.11982E-4
2660.156250; 1.22686E-4
2666.015625; 1.15164E-4
2671.875000; 1.17083E-4
2677.734375; 1.08438E-4
2683.593750; 9.98559E-5
2689.453125; 1.07900E-4
2695.312500; 1.03519E-4
2701.171875; 9.91119E-5
2707.031250; 9.82988E-5
2712.890625; 1.06476E-4
2718.750000; 1.14346E-4
2724.609375; 1.06435E-4
2730.468750; 1.04938E-4
2736.328125; 9.73271E-5
2742.187500; 1.02247E-4
2748.046875; 1.02703E-4
2753.906250; 1.10805E-4
2759.765625; 1.04964E-4
2765.625000; 1.04694E-4
2771.484375; 1.07195E-4
2777.343750; 1.13096E-4
2783.203125; 1.21820E-4
2789.062500; 1.15363E-4
2794.921875; 1.08866E-4
2800.781250; 1.08973E-4
2806.640625; 1.09063E-4
2812.500000; 1.07317E-4
2818.359375; 1.08584E-4
2824.218750; 1.10506E-4
2830.078125; 1.15234E-4
2835.937500; 1.00623E-4
2841.796875; 1.11782E-4
2847.656250; 1.06581E-4
2853.515625; 1.09754E-4
2859.375000; 1.13609E-4
2865.234375; 1.03223E-4
2871.093750; 1.02778E-4
2876.953125; 1.08656E-4
2882.812500; 1.08032E-4
2888.671875; 1.18405E-4
2894.531250; 1.05796E-4
2900.390625; 1.00897E-4
2906.250000; 1.07063E-4
2912.109375; 1.18323E-4
2917.968750; 1.22123E-4
2923.828125; 1.13344E-4
2929.687500; 1.00677E-4
2935.546875; 9.24793E-5
2941.406250; 9.96421E-5
2947.265625; 9.84995E-5
2953.125000; 9.87244E-5
2958.984375; 9.56526E-5
2964.843750; 9.35732E-5
2970.703125; 1.02696E-4
2976.562500; 1.07176E-4
2982.421875; 1.04617E-4
2988.281250; 1.03277E-4
2994.140625; 1.18484E-4
3000.000000; 1.46638E-4
3005.859375; 1.24899E-4
3011.718750; 1.12764E-4
3017.578125; 1.01919E-4
3023.437500; 1.08106E-4
3029.296875; 1.02282E-4
3035.156250; 1.02108E-4
3041.015625; 1.01887E-4
3046.875000; 9.94863E-5
3052.734375; 9.82254E-5
3058.593750; 1.08410E-4
3064.453125; 1.03086E-4
3070.312500; 1.08718E-4
3076.171875; 1.09212E-4
3082.031250; 9.98996E-5
3087.890625; 1.05810E-4
3093.750000; 1.12691E-4
3099.609375; 1.01173E-4
3105.468750; 9.99636E-5
3111.328125; 9.96614E-5
3117.187500; 1.09222E-4
3123.046875; 1.02222E-4
3128.906250; 9.96270E-5
3134.765625; 1.05922E-4
3140.625000; 1.09185E-4
3146.484375; 1.06253E-4
3152.343750; 1.10192E-4
3158.203125; 1.06709E-4
3164.062500; 1.02756E-4
3169.921875; 1.09085E-4
3175.781250; 1.08261E-4
3181.640625; 1.01836E-4
3187.500000; 9.23965E-5
3193.359375; 1.04708E-4
3199.218750; 1.12316E-4
3205.078125; 1.02787E-4
3210.937500; 1.04161E-4
3216.796875; 9.97404E-5
3222.656250; 1.10561E-4
3228.515625; 1.11592E-4
3234.375000; 1.00246E-4
3240.234375; 1.10820E-4
3246.093750; 1.06210E-4
3251.953125; 9.61625E-5
3257.812500; 1.11150E-4
3263.671875; 1.17201E-4
3269.531250; 1.12737E-4
3275.390625; 1.18091E-4
3281.250000; 1.11744E-4
3287.109375; 1.03522E-4
3292.968750; 1.10421E-4
3298.828125; 1.25778E-4
3304.687500; 1.30208E-4
3310.546875; 1.17788E-4
3316.406250; 1.10858E-4
3322.265625; 1.07826E-4
3328.125000; 1.01087E-4
3333.984375; 1.07343E-4
3339.843750; 1.06327E-4
3345.703125; 1.04416E-4
3351.562500; 1.03546E-4
3357.421875; 1.01012E-4
3363.281250; 1.03964E-4
3369.140625; 9.83670E-5
3375.000000; 1.10805E-4
3380.859375; 1.12706E-4
3386.718750; 9.67391E-5
3392.578125; 1.05712E-4
3398.437500; 1.11942E-4
3404.296875; 1.10616E-4
3410.156250; 1.05669E-4
3416.015625; 1.02564E-4
3421.875000; 1.11508E-4
3427.734375; 1.10728E-4
3433.593750; 1.20312E-4
3439.453125; 1.17031E-4
3445.312500; 1.08457E-4
3451.171875; 1.01872E-4
3457.031250; 1.07440E-4
3462.890625; 9.54369E-5
3468.750000; 9.51274E-5
3474.609375; 9.73649E-5
3480.468750; 1.12973E-4
3486.328125; 1.12201E-4
3492.187500; 1.04396E-4
3498.046875; 1.07364E-4
3503.906250; 1.10880E-4
3509.765625; 1.07676E-4
3515.625000; 1.05975E-4
3521.484375; 1.09748E-4
3527.343750; 1.04665E-4
3533.203125; 1.05350E-4
3539.062500; 1.03787E-4
3544.921875; 1.00102E-4
3550.781250; 9.97729E-5
3556.640625; 1.02000E-4
3562.500000; 1.08750E-4
3568.359375; 1.15951E-4
3574.218750; 1.18097E-4
3580.078125; 1.05866E-4
3585.937500; 1.04560E-4
3591.796875; 1.05733E-4
3597.656250; 1.05565E-4
3603.515625; 1.06424E-4
3609.375000; 1.10651E-4
3615.234375; 1.13314E-4
3621.093750; 1.08035E-4
3626.953125; 1.06477E-4
3632.812500; 1.06065E-4
3638.671875; 9.45300E-5
3644.531250; 9.90134E-5
3650.390625; 1.03343E-4
3656.250000; 1.02317E-4
3662.109375; 1.00364E-4
3667.968750; 1.08451E-4
3673.828125; 1.04814E-4
3679.687500; 1.07611E-4
3685.546875; 1.11704E-4
3691.406250; 1.09141E-4
3697.265625; 1.09623E-4
3703.125000; 1.09213E-4
3708.984375; 1.01059E-4
3714.843750; 1.05148E-4
3720.703125; 1.06177E-4
3726.562500; 1.04336E-4
3732.421875; 1.10014E-4
3738.281250; 1.20449E-4
3744.140625; 1.16852E-4
3750.000000; 1.08225E-4
3755.859375; 1.04952E-4
3761.718750; 1.07549E-4
3767.578125; 1.00824E-4
3773.437500; 9.71464E-5
3779.296875; 1.01144E-4
3785.156250; 9.59465E-5
3791.015625; 1.02822E-4
3796.875000; 1.02946E-4
3802.734375; 1.04988E-4
3808.593750; 1.07721E-4
3814.453125; 9.53875E-5
3820.312500; 1.02106E-4
3826.171875; 1.05220E-4
3832.031250; 1.16543E-4
3837.890625; 1.14573E-4
3843.750000; 1.01674E-4
3849.609375; 9.61698E-5
3855.468750; 1.05071E-4
3861.328125; 1.03892E-4
3867.187500; 1.07211E-4
3873.046875; 1.06301E-4
3878.906250; 9.99916E-5
3884.765625; 1.03210E-4
3890.625000; 9.78454E-5
3896.484375; 1.05044E-4
3902.343750; 1.07507E-4
3908.203125; 9.16668E-5
3914.062500; 1.06599E-4
3919.921875; 1.09354E-4
3925.781250; 1.14638E-4
3931.640625; 1.15449E-4
3937.500000; 1.03668E-4
3943.359375; 9.40386E-5
3949.218750; 1.07824E-4
3955.078125; 1.06520E-4
3960.937500; 9.90567E-5
3966.796875; 1.02104E-4
3972.656250; 1.05414E-4
3978.515625; 1.04558E-4
3984.375000; 9.90597E-5
3990.234375; 8.48729E-5
3996.093750; 1.05958E-4
4001.953125; 1.12136E-4
4007.812500; 1.00582E-4
4013.671875; 9.92405E-5
4019.531250; 8.77623E-5
4025.390625; 9.45594E-5
4031.250000; 1.04318E-4
4037.109375; 1.06816E-4
4042.968750; 1.00306E-4
4048.828125; 1.00435E-4
4054.687500; 1.07133E-4
4060.546875; 9.58328E-5
4066.406250; 1.08523E-4
4072.265625; 1.12161E-4
4078.125000; 1.06118E-4
4083.984375; 9.90783E-5
4089.843750; 1.07360E-4
4095.703125; 1.04664E-4
4101.562500; 1.05871E-4
4107.421875; 1.07831E-4
4113.281250; 9.91650E-5
4119.140625; 1.07076E-4
4125.000000; 1.13134E-4
4130.859375; 9.91665E-5
4136.718750; 1.00480E-4
4142.578125; 9.60587E-5
4148.437500; 9.63655E-5
4154.296875; 1.06940E-4
4160.156250; 1.11141E-4
4166.015625; 9.46283E-5
4171.875000; 9.14122E-5
4177.734375; 1.05059E-4
4183.593750; 1.06444E-4
4189.453125; 1.04614E-4
4195.312500; 1.04352E-4
4201.171875; 1.09086E-4
4207.031250; 1.10482E-4
4212.890625; 1.10688E-4
4218.750000; 1.09407E-4
4224.609375; 1.02832E-4
4230.468750; 1.06446E-4
4236.328125; 1.05788E-4
4242.187500; 1.02796E-4
4248.046875; 1.00132E-4
4253.906250; 1.02686E-4
4259.765625; 1.09954E-4
4265.625000; 1.15930E-4
4271.484375; 1.11472E-4
4277.343750; 1.07363E-4
4283.203125; 1.05179E-4
4289.062500; 9.82530E-5
4294.921875; 1.00265E-4
4300.781250; 1.05688E-4
4306.640625; 9.85125E-5
4312.500000; 1.10093E-4
4318.359375; 9.97826E-5
4324.218750; 9.31100E-5
4330.078125; 1.02394E-4
4335.937500; 1.01883E-4
4341.796875; 1.07115E-4
4347.656250; 1.10129E-4
4353.515625; 1.03687E-4
4359.375000; 9.49447E-5
4365.234375; 9.83724E-5
4371.093750; 1.02751E-4
4376.953125; 9.56604E-5
4382.812500; 1.01837E-4
4388.671875; 1.02842E-4
4394.531250; 1.06798E-4
4400.390625; 9.79777E-5
4406.250000; 1.06869E-4
4412.109375; 1.10138E-4
4417.968750; 1.18114E-4
4423.828125; 1.07901E-4
4429.687500; 1.05776E-4
4435.546875; 1.05062E-4
4441.406250; 1.01100E-4
4447.265625; 1.01544E-4
4453.125000; 1.15001E-4
4458.984375; 1.13727E-4
4464.843750; 1.17925E-4
4470.703125; 1.15279E-4
4476.562500; 1.02823E-4
4482.421875; 1.02368E-4
4488.281250; 1.07421E-4
4494.140625; 1.04594E-4
4500.000000; 9.27477E-5
4505.859375; 1.03432E-4
4511.718750; 1.08184E-4
4517.578125; 1.02478E-4
4523.437500; 9.74522E-5
4529.296875; 9.67756E-5
4535.156250; 1.05303E-4
4541.015625; 1.04278E-4
4546.875000; 1.04586E-4
4552.734375; 9.32855E-5
4558.593750; 9.77448E-5
4564.453125; 1.11074E-4
4570.312500; 1.02813E-4
4576.171875; 1.07587E-4
4582.031250; 1.14283E-4
4587.890625; 1.13921E-4
4593.750000; 1.08272E-4
4599.609375; 1.08067E-4
4605.468750; 1.10536E-4
4611.328125; 1.09221E-4
4617.187500; 1.01896E-4
4623.046875; 9.96950E-5
4628.906250; 1.06515E-4
4634.765625; 1.03738E-4
4640.625000; 1.09523E-4
4646.484375; 1.15544E-4
4652.343750; 1.06699E-4
4658.203125; 1.02812E-4
4664.062500; 1.07123E-4
4669.921875; 1.04727E-4
4675.781250; 1.03375E-4
4681.640625; 1.05183E-4
4687.500000; 1.02486E-4
4693.359375; 1.03503E-4
4699.218750; 1.06706E-4
4705.078125; 1.02230E-4
4710.937500; 1.00105E-4
4716.796875; 9.70899E-5
4722.656250; 1.07053E-4
4728.515625; 1.12577E-4
4734.375000; 1.17558E-4
4740.234375; 1.06921E-4
4746.093750; 1.01894E-4
4751.953125; 1.03098E-4
4757.812500; 1.07760E-4
4763.671875; 1.15217E-4
4769.531250; 1.06117E-4
4775.390625; 1.07591E-4
4781.250000; 9.90886E-5
4787.109375; 9.99882E-5
4792.968750; 1.04372E-4
4798.828125; 1.00172E-4
4804.687500; 1.03136E-4
4810.546875; 1.08087E-4
4816.406250; 1.05498E-4
4822.265625; 9.13499E-5
4828.125000; 9.79916E-5
4833.984375; 1.01383E-4
4839.843750; 1.07607E-4
4845.703125; 1.00058E-4
4851.562500; 1.03819E-4
4857.421875; 1.11315E-4
4863.281250; 1.01695E-4
4869.140625; 1.04294E-4
4875.000000; 9.86934E-5
4880.859375; 1.09683E-4
4886.718750; 1.02331E-4
4892.578125; 9.38652E-5
4898.437500; 9.86674E-5
4904.296875; 1.02189E-4
4910.156250; 9.37381E-5
4916.015625; 9.61033E-5
4921.875000; 1.04945E-4
4927.734375; 1.10100E-4
4933.593750; 1.01259E-4
4939.453125; 9.94759E-5
4945.312500; 1.08980E-4
4951.171875; 1.07705E-4
4957.031250; 9.09399E-5
4962.890625; 9.85430E-5
4968.750000; 1.11896E-4
4974.609375; 1.05960E-4
4980.468750; 1.02703E-4
4986.328125; 1.07132E-4
4992.187500; 1.11032E-4
4998.046875; 9.87466E-5
5003.906250; 8.67207E-5
5009.765625; 9.59089E-5
5015.625000; 1.10316E-4
5021.484375; 1.08768E-4
5027.343750; 9.76009E-5
5033.203125; 1.10865E-4
5039.062500; 1.09153E-4
5044.921875; 9.91398E-5
5050.781250; 1.00347E-4
5056.640625; 1.01148E-4
5062.500000; 1.16783E-4
5068.359375; 1.17955E-4
5074.218750; 1.18395E-4
5080.078125; 1.15772E-4
5085.937500; 1.02848E-4
5091.796875; 1.02728E-4
5097.656250; 1.14098E-4
5103.515625; 1.26124E-4
5109.375000; 1.16210E-4
5115.234375; 1.07606E-4
5121.093750; 1.05630E-4
5126.953125; 9.84799E-5
5132.812500; 9.61038E-5
5138.671875; 1.06184E-4
5144.531250; 1.02838E-4
5150.390625; 1.04590E-4
5156.250000; 9.34195E-5
5162.109375; 1.03515E-4
5167.968750; 1.04080E-4
5173.828125; 1.10597E-4
5179.687500; 1.16756E-4
5185.546875; 1.15274E-4
5191.406250; 1.05222E-4
5197.265625; 9.91520E-5
5203.125000; 1.07747E-4
5208.984375; 1.04583E-4
5214.843750; 9.55342E-5
5220.703125; 1.01217E-4
5226.562500; 1.09736E-4
5232.421875; 1.08555E-4
5238.281250; 1.04980E-4
5244.140625; 9.63163E-5
5250.000000; 9.35042E-5
5255.859375; 1.05929E-4
5261.718750; 1.10896E-4
5267.578125; 1.13617E-4
5273.437500; 1.02695E-4
5279.296875; 1.12188E-4
5285.156250; 1.14150E-4
5291.015625; 1.02915E-4
5296.875000; 9.23021E-5
5302.734375; 1.05299E-4
5308.593750; 1.04346E-4
5314.453125; 1.11746E-4
5320.312500; 1.10226E-4
5326.171875; 1.11499E-4
5332.031250; 1.05898E-4
5337.890625; 1.07645E-4
5343.750000; 1.02784E-4
5349.609375; 1.03914E-4
5355.468750; 1.08855E-4
5361.328125; 1.05135E-4
5367.187500; 1.00838E-4
5373.046875; 9.81325E-5
5378.906250; 1.03414E-4
5384.765625; 1.06392E-4
5390.625000; 1.00516E-4
5396.484375; 1.06615E-4
5402.343750; 1.12471E-4
5408.203125; 1.00236E-4
5414.062500; 9.40808E-5
5419.921875; 9.19355E-5
5425.781250; 9.98716E-5
5431.640625; 1.00617E-4
5437.500000; 1.02171E-4
5443.359375; 1.03840E-4
5449.218750; 1.06525E-4
5455.078125; 1.10348E-4
5460.937500; 1.07309E-4
5466.796875; 1.07020E-4
5472.656250; 9.77004E-5
5478.515625; 9.63072E-5
5484.375000; 1.00378E-4
5490.234375; 1.04568E-4
5496.093750; 1.00585E-4
5501.953125; 1.05870E-4
5507.812500; 1.02676E-4
5513.671875; 1.01277E-4
5519.531250; 1.09072E-4
5525.390625; 1.08436E-4
5531.250000; 1.06112E-4
5537.109375; 9.70882E-5
5542.968750; 1.01653E-4
5548.828125; 1.10076E-4
5554.687500; 1.09180E-4
5560.546875; 1.12837E-4
5566.406250; 1.05051E-4
5572.265625; 1.03036E-4
5578.125000; 1.09601E-4
5583.984375; 9.02904E-5
5589.843750; 9.58955E-5
5595.703125; 1.13628E-4
5601.562500; 1.09508E-4
5607.421875; 1.04649E-4
5613.281250; 1.05685E-4
5619.140625; 1.03935E-4
5625.000000; 1.04997E-4
5630.859375; 1.04623E-4
5636.718750; 1.01644E-4
5642.578125; 9.94569E-5
5648.437500; 9.21280E-5
5654.296875; 1.01687E-4
5660.156250; 1.05143E-4
5666.015625; 1.06421E-4
5671.875000; 9.79979E-5
5677.734375; 9.39085E-5
5683.593750; 1.03113E-4
5689.453125; 1.02718E-4
5695.312500; 1.08757E-4
5701.171875; 1.14762E-4
5707.031250; 1.05786E-4
5712.890625; 9.97344E-5
5718.750000; 9.95209E-5
5724.609375; 9.99170E-5
5730.468750; 9.84449E-5
5736.328125; 1.12590E-4
5742.187500; 1.03832E-4
5748.046875; 9.41745E-5
5753.906250; 9.94034E-5
5759.765625; 1.07490E-4
5765.625000; 1.23243E-4
5771.484375; 1.14397E-4
5777.343750; 1.03508E-4
5783.203125; 1.03197E-4
5789.062500; 9.39913E-5
5794.921875; 9.22486E-5
5800.781250; 1.04060E-4
5806.640625; 1.06657E-4
5812.500000; 1.01690E-4
5818.359375; 1.00460E-4
5824.218750; 9.85715E-5
5830.078125; 9.83838E-5
5835.937500; 9.08054E-5
5841.796875; 9.32753E-5
5847.656250; 9.60995E-5
5853.515625; 1.12253E-4
5859.375000; 1.10914E-4
5865.234375; 1.10782E-4
5871.093750; 1.14374E-4
5876.953125; 1.00954E-4
5882.812500; 9.16793E-5
5888.671875; 9.48203E-5
5894.531250; 9.13771E-5
5900.390625; 1.04145E-4
5906.250000; 1.07607E-4
5912.109375; 1.05952E-4
5917.968750; 1.06303E-4
5923.828125; 1.06826E-4
5929.687500; 1.12605E-4
5935.546875; 1.08909E-4
5941.406250; 1.05177E-4
5947.265625; 1.01270E-4
5953.125000; 1.00610E-4
5958.984375; 9.96340E-5
5964.843750; 1.04378E-4
5970.703125; 1.08109E-4
5976.562500; 1.11279E-4
5982.421875; 1.03199E-4
5988.281250; 1.02913E-4
5994.140625; 1.01270E-4
6000.000000; 1.03900E-4
6005.859375; 1.04038E-4
6011.718750; 9.23242E-5
6017.578125; 9.61156E-5
6023.437500; 1.00497E-4
6029.296875; 1.02641E-4
6035.156250; 9.81290E-5
6041.015625; 9.05104E-5
6046.875000; 9.53613E-5
6052.734375; 1.01878E-4
6058.593750; 1.16486E-4
6064.453125; 1.10950E-4
6070.312500; 1.01331E-4
6076.171875; 9.41185E-5
6082.031250; 9.95537E-5
6087.890625; 1.01894E-4
6093.750000; 1.03832E-4
6099.609375; 1.04473E-4
6105.468750; 1.07330E-4
6111.328125; 1.04283E-4
6117.187500; 9.89263E-5
6123.046875; 9.40561E-5
6128.906250; 1.04588E-4
6134.765625; 1.04443E-4
6140.625000; 1.04506E-4
6146.484375; 1.11487E-4
6152.343750; 1.12112E-4
6158.203125; 1.04176E-4
6164.062500; 1.02870E-4
6169.921875; 1.01271E-4
6175.781250; 9.99451E-5
6181.640625; 1.05440E-4
6187.500000; 9.67035E-5
6193.359375; 8.62531E-5
6199.218750; 9.32687E-5
6205.078125; 9.87585E-5
6210.937500; 1.03931E-4
6216.796875; 1.04808E-4
6222.656250; 1.01546E-4
6228.515625; 9.32602E-5
6234.375000; 1.00613E-4
6240.234375; 1.03857E-4
6246.093750; 1.05376E-4
6251.953125; 1.02934E-4
6257.812500; 1.04380E-4
6263.671875; 1.03180E-4
6269.531250; 1.00900E-4
6275.390625; 1.01739E-4
6281.250000; 9.97426E-5
6287.109375; 1.10132E-4
6292.968750; 1.23542E-4
6298.828125; 1.07079E-4
6304.687500; 1.04625E-4
6310.546875; 1.09103E-4
6316.406250; 1.12094E-4
6322.265625; 9.99359E-5
6328.125000; 9.98338E-5
6333.984375; 1.03604E-4
6339.843750; 1.02586E-4
6345.703125; 1.09222E-4
6351.562500; 1.04236E-4
6357.421875; 1.11265E-4
6363.281250; 1.06361E-4
6369.140625; 1.00433E-4
6375.000000; 1.10368E-4
6380.859375; 1.12586E-4
6386.718750; 9.98531E-5
6392.578125; 9.80861E-5
6398.437500; 1.03671E-4
6404.296875; 1.13815E-4
6410.156250; 1.18519E-4
6416.015625; 1.11014E-4
6421.875000; 1.04673E-4
6427.734375; 9.83134E-5
6433.593750; 9.52385E-5
6439.453125; 1.06095E-4
6445.312500; 1.17707E-4
6451.171875; 1.16938E-4
6457.031250; 1.05367E-4
6462.890625; 1.01618E-4
6468.750000; 9.49964E-5
6474.609375; 1.02006E-4
6480.468750; 9.80208E-5
6486.328125; 9.78439E-5
6492.187500; 9.99032E-5
6498.046875; 9.51773E-5
6503.906250; 9.27180E-5
6509.765625; 1.05139E-4
6515.625000; 1.03674E-4
6521.484375; 1.09400E-4
6527.343750; 1.00779E-4
6533.203125; 9.75445E-5
6539.062500; 1.04725E-4
6544.921875; 1.05891E-4
6550.781250; 1.02020E-4
6556.640625; 1.07587E-4
6562.500000; 1.03353E-4
6568.359375; 1.06210E-4
6574.218750; 1.01996E-4
6580.078125; 9.69735E-5
6585.937500; 1.09287E-4
6591.796875; 1.09587E-4
6597.656250; 1.03455E-4
6603.515625; 9.88735E-5
6609.375000; 9.65302E-5
6615.234375; 9.86513E-5
6621.093750; 1.03839E-4
6626.953125; 1.01220E-4
6632.812500; 9.24896E-5
6638.671875; 9.42895E-5
6644.531250; 1.02162E-4
6650.390625; 1.05894E-4
6656.250000; 9.70922E-5
6662.109375; 9.24311E-5
6667.968750; 1.03044E-4
6673.828125; 1.07870E-4
6679.687500; 1.04478E-4
6685.546875; 1.08713E-4
6691.406250; 9.97875E-5
6697.265625; 9.55683E-5
6703.125000; 9.66405E-5
6708.984375; 1.05498E-4
6714.843750; 1.00743E-4
6720.703125; 1.05618E-4
6726.562500; 1.14294E-4
6732.421875; 1.01364E-4
6738.281250; 1.05526E-4
6744.140625; 1.14933E-4
6750.000000; 1.04363E-4
6755.859375; 1.13358E-4
6761.718750; 1.16602E-4
6767.578125; 1.10762E-4
6773.437500; 1.06633E-4
6779.296875; 1.02839E-4
6785.156250; 1.06057E-4
6791.015625; 1.08589E-4
6796.875000; 1.07587E-4
6802.734375; 1.02257E-4
6808.593750; 9.60705E-5
6814.453125; 9.14734E-5
6820.312500; 9.73041E-5
6826.171875; 1.01415E-4
6832.031250; 1.01461E-4
6837.890625; 1.06624E-4
6843.750000; 1.06761E-4
6849.609375; 9.66999E-5
6855.468750; 1.03047E-4
6861.328125; 1.02622E-4
6867.187500; 1.13259E-4
6873.046875; 1.13203E-4
6878.906250; 1.09641E-4
6884.765625; 1.07493E-4
6890.625000; 1.04836E-4
6896.484375; 9.50564E-5
6902.343750; 8.75828E-5
6908.203125; 9.64509E-5
6914.062500; 1.01987E-4
6919.921875; 1.03968E-4
6925.781250; 1.08313E-4
6931.640625; 1.13720E-4
6937.500000; 1.12134E-4
6943.359375; 1.13172E-4
6949.218750; 1.02442E-4
6955.078125; 1.05358E-4
6960.937500; 1.06864E-4
6966.796875; 1.06641E-4
6972.656250; 1.04662E-4
6978.515625; 9.97907E-5
6984.375000; 9.97945E-5
6990.234375; 1.03659E-4
6996.093750; 1.03252E-4
7001.953125; 1.14659E-4
7007.812500; 1.12247E-4
7013.671875; 1.13620E-4
7019.531250; 1.21562E-4
7025.390625; 1.13039E-4
7031.250000; 1.04815E-4
7037.109375; 1.06214E-4
7042.968750; 1.01231E-4
7048.828125; 9.25551E-5
7054.687500; 1.01614E-4
7060.546875; 9.60464E-5
7066.406250; 1.01498E-4
7072.265625; 1.02684E-4
7078.125000; 1.10901E-4
7083.984375; 1.13503E-4
7089.843750; 1.06762E-4
7095.703125; 1.10371E-4
7101.562500; 1.06085E-4
7107.421875; 1.06996E-4
7113.281250; 1.02434E-4
7119.140625; 9.92689E-5
7125.000000; 1.00712E-4
7130.859375; 1.10130E-4
7136.718750; 1.02214E-4
7142.578125; 9.66923E-5
7148.437500; 1.00614E-4
7154.296875; 1.03883E-4
7160.156250; 1.06538E-4
7166.015625; 1.08060E-4
7171.875000; 1.01179E-4
7177.734375; 1.02178E-4
7183.593750; 1.01945E-4
7189.453125; 1.11220E-4
7195.312500; 1.06533E-4
7201.171875; 1.06033E-4
7207.031250; 1.05137E-4
7212.890625; 9.91063E-5
7218.750000; 1.00329E-4
7224.609375; 9.83496E-5
7230.468750; 9.96078E-5
7236.328125; 1.02286E-4
7242.187500; 1.03154E-4
7248.046875; 1.09970E-4
7253.906250; 1.13116E-4
7259.765625; 1.12425E-4
7265.625000; 1.08704E-4
7271.484375; 1.02182E-4
7277.343750; 1.00201E-4
7283.203125; 9.90128E-5
7289.062500; 1.03999E-4
7294.921875; 1.08077E-4
7300.781250; 1.05247E-4
7306.640625; 9.68662E-5
7312.500000; 9.15909E-5
7318.359375; 9.18239E-5
7324.218750; 1.04903E-4
7330.078125; 1.07678E-4
7335.937500; 9.98114E-5
7341.796875; 1.05308E-4
7347.656250; 1.08012E-4
7353.515625; 1.06890E-4
7359.375000; 1.03194E-4
7365.234375; 9.43056E-5
7371.093750; 1.00534E-4
7376.953125; 8.89728E-5
7382.812500; 9.16201E-5
7388.671875; 1.02287E-4
7394.531250; 1.04162E-4
7400.390625; 1.07453E-4
7406.250000; 1.05899E-4
7412.109375; 9.02194E-5
7417.968750; 9.63277E-5
7423.828125; 1.06212E-4
7429.687500; 1.05245E-4
7435.546875; 1.07811E-4
7441.406250; 1.00665E-4
7447.265625; 1.05349E-4
7453.125000; 1.14029E-4
7458.984375; 1.01576E-4
7464.843750; 9.12958E-5
7470.703125; 1.05110E-4
7476.562500; 1.09978E-4
7482.421875; 1.03811E-4
7488.281250; 9.26437E-5
7494.140625; 1.00663E-4
7500.000000; 9.90475E-5
7505.859375; 9.01668E-5
7511.718750; 9.10221E-5
7517.578125; 9.95651E-5
7523.437500; 1.03590E-4
7529.296875; 1.02193E-4
7535.156250; 1.08070E-4
7541.015625; 1.13416E-4
7546.875000; 1.11836E-4
7552.734375; 1.10702E-4
7558.593750; 1.02419E-4
7564.453125; 1.06675E-4
7570.312500; 1.03487E-4
7576.171875; 1.09611E-4
7582.031250; 1.09826E-4
7587.890625; 1.02745E-4
7593.750000; 1.04300E-4
7599.609375; 1.10251E-4
7605.468750; 1.08215E-4
7611.328125; 1.12468E-4
7617.187500; 1.09283E-4
7623.046875; 1.03692E-4
7628.906250; 9.65014E-5
7634.765625; 1.02946E-4
7640.625000; 9.70427E-5
7646.484375; 9.97093E-5
7652.343750; 1.02424E-4
7658.203125; 9.24553E-5
7664.062500; 1.06749E-4
7669.921875; 1.06252E-4
7675.781250; 1.05838E-4
7681.640625; 1.08959E-4
7687.500000; 1.00810E-4
7693.359375; 9.31408E-5
7699.218750; 1.02724E-4
7705.078125; 9.77317E-5
7710.937500; 9.93547E-5
7716.796875; 1.03447E-4
7722.656250; 1.03503E-4
7728.515625; 1.13073E-4
7734.375000; 1.12202E-4
7740.234375; 9.78810E-5
7746.093750; 1.02312E-4
7751.953125; 1.20418E-4
7757.812500; 1.06493E-4
7763.671875; 1.01598E-4
7769.531250; 9.90972E-5
7775.390625; 1.00519E-4
7781.250000; 1.03519E-4
7787.109375; 1.10788E-4
7792.968750; 1.07345E-4
7798.828125; 1.06123E-4
7804.687500; 1.02390E-4
7810.546875; 1.03749E-4
7816.406250; 1.03279E-4
7822.265625; 1.07128E-4
7828.125000; 1.07593E-4
7833.984375; 1.13193E-4
7839.843750; 1.07134E-4
7845.703125; 9.98403E-5
7851.562500; 1.08542E-4
7857.421875; 1.09826E-4
7863.281250; 1.09124E-4
7869.140625; 1.16687E-4
7875.000000; 1.25877E-4
7880.859375; 1.07325E-4
7886.718750; 1.08298E-4
7892.578125; 1.07942E-4
7898.437500; 9.78062E-5
7904.296875; 1.00189E-4
7910.156250; 1.10660E-4
7916.015625; 1.09950E-4
7921.875000; 1.06799E-4
7927.734375; 1.00244E-4
7933.593750; 9.80558E-5
7939.453125; 9.64148E-5
7945.312500; 1.03917E-4
7951.171875; 1.03326E-4
7957.031250; 9.43746E-5
7962.890625; 9.88455E-5
7968.750000; 1.03478E-4
7974.609375; 9.58795E-5
7980.468750; 1.06254E-4
7986.328125; 1.08654E-4
7992.187500; 9.93526E-5
7998.046875; 1.08582E-4
8003.906250; 1.19181E-4
8009.765625; 1.23034E-4
8015.625000; 1.15479E-4
8021.484375; 1.14209E-4
8027.343750; 1.05507E-4
8033.203125; 1.08047E-4
8039.062500; 1.07587E-4
8044.921875; 1.09353E-4
8050.781250; 1.13943E-4
8056.640625; 1.06761E-4
8062.500000; 1.12420E-4
8068.359375; 1.08840E-4
8074.218750; 1.01646E-4
8080.078125; 1.08884E-4
8085.937500; 1.02290E-4
8091.796875; 9.77637E-5
8097.656250; 1.00769E-4
8103.515625; 9.57115E-5
8109.375000; 9.71338E-5
8115.234375; 1.00724E-4
8121.093750; 9.82967E-5
8126.953125; 9.91017E-5
8132.812500; 1.03638E-4
8138.671875; 9.89074E-5
8144.531250; 9.82339E-5
8150.390625; 1.02689E-4
8156.250000; 1.04553E-4
8162.109375; 1.03306E-4
8167.968750; 1.07780E-4
8173.828125; 1.08656E-4
8179.687500; 1.02559E-4
8185.546875; 1.03667E-4
8191.406250; 1.02051E-4
8197.265625; 9.39162E-5
8203.125000; 9.83842E-5
8208.984375; 9.16509E-5
8214.843750; 9.50292E-5
8220.703125; 1.04351E-4
8226.562500; 1.04445E-4
8232.421875; 1.07412E-4
8238.281250; 1.00363E-4
8244.140625; 9.76723E-5
8250.000000; 1.03834E-4
8255.859375; 1.03725E-4
8261.718750; 1.00675E-4
8267.578125; 1.01951E-4
8273.437500; 1.01581E-4
8279.296875; 1.10370E-4
8285.156250; 9.94408E-5
8291.015625; 9.96463E-5
8296.875000; 1.03382E-4
8302.734375; 1.07108E-4
8308.593750; 1.03489E-4
8314.453125; 1.02781E-4
8320.312500; 1.08674E-4
8326.171875; 1.07836E-4
8332.031250; 1.10995E-4
8337.890625; 1.08295E-4
8343.750000; 1.04779E-4
8349.609375; 1.06229E-4
8355.468750; 9.75166E-5
8361.328125; 1.08506E-4
8367.187500; 1.10735E-4
8373.046875; 1.08490E-4
8378.906250; 1.03631E-4
8384.765625; 9.98866E-5
8390.625000; 8.74297E-5
8396.484375; 9.01971E-5
8402.343750; 1.00297E-4
8408.203125; 9.52198E-5
8414.062500; 9.50863E-5
8419.921875; 9.24309E-5
8425.781250; 1.02278E-4
8431.640625; 1.11377E-4
8437.500000; 9.81581E-5
8443.359375; 9.53937E-5
8449.218750; 1.04998E-4
8455.078125; 1.06604E-4
8460.937500; 1.00074E-4
8466.796875; 1.00015E-4
8472.656250; 1.12974E-4
8478.515625; 1.03706E-4
8484.375000; 1.02442E-4
8490.234375; 1.03807E-4
8496.093750; 1.07004E-4
8501.953125; 1.10628E-4
8507.812500; 9.59080E-5
8513.671875; 9.96018E-5
8519.531250; 1.00312E-4
8525.390625; 9.64535E-5
8531.250000; 9.51379E-5
8537.109375; 1.10723E-4
8542.968750; 1.03878E-4
8548.828125; 9.24409E-5
8554.687500; 1.00146E-4
8560.546875; 1.08902E-4
8566.406250; 9.95990E-5
8572.265625; 1.07347E-4
8578.125000; 1.06236E-4
8583.984375; 1.05379E-4
8589.843750; 1.03952E-4
8595.703125; 9.84381E-5
8601.562500; 9.59198E-5
8607.421875; 1.06211E-4
8613.281250; 1.04346E-4
8619.140625; 1.02668E-4
8625.000000; 1.03810E-4
8630.859375; 1.03149E-4
8636.718750; 1.03003E-4
8642.578125; 9.47090E-5
8648.437500; 9.90881E-5
8654.296875; 1.02069E-4
8660.156250; 1.05236E-4
8666.015625; 1.00312E-4
8671.875000; 1.03042E-4
8677.734375; 1.02620E-4
8683.593750; 9.84934E-5
8689.453125; 9.87560E-5
8695.312500; 1.06760E-4
8701.171875; 1.04144E-4
8707.031250; 1.07691E-4
8712.890625; 1.06596E-4
8718.750000; 1.01612E-4
8724.609375; 9.92383E-5
8730.468750; 1.04401E-4
8736.328125; 1.08923E-4
8742.187500; 9.64025E-5
8748.046875; 1.02456E-4
8753.906250; 1.06812E-4
8759.765625; 9.85885E-5
8765.625000; 9.10276E-5
8771.484375; 1.05063E-4
8777.343750; 1.11128E-4
8783.203125; 9.89044E-5
8789.062500; 9.76627E-5
8794.921875; 9.96258E-5
8800.781250; 9.77768E-5
8806.640625; 1.02614E-4
8812.500000; 1.07573E-4
8818.359375; 1.00566E-4
8824.218750; 9.96883E-5
8830.078125; 1.00754E-4
8835.937500; 1.00859E-4
8841.796875; 1.04938E-4
8847.656250; 1.08811E-4
8853.515625; 9.95672E-5
8859.375000; 1.06026E-4
8865.234375; 1.13736E-4
8871.093750; 1.08410E-4
8876.953125; 1.03962E-4
8882.812500; 1.08021E-4
8888.671875; 9.72005E-5
8894.531250; 9.08001E-5
8900.390625; 9.98223E-5
8906.250000; 1.06832E-4
8912.109375; 1.03230E-4
8917.968750; 1.01383E-4
8923.828125; 1.02374E-4
8929.687500; 1.07548E-4
8935.546875; 9.97986E-5
8941.406250; 1.02084E-4
8947.265625; 9.02856E-5
8953.125000; 9.12359E-5
8958.984375; 9.24804E-5
8964.843750; 9.97676E-5
8970.703125; 1.04212E-4
8976.562500; 1.09706E-4
8982.421875; 1.09634E-4
8988.281250; 9.94351E-5
8994.140625; 1.08928E-4
9000.000000; 9.69814E-5
9005.859375; 9.89957E-5
9011.718750; 9.39578E-5
9017.578125; 9.87320E-5
9023.437500; 1.09082E-4
9029.296875; 1.04579E-4
9035.156250; 1.04284E-4
9041.015625; 1.01777E-4
9046.875000; 9.76313E-5
9052.734375; 9.85272E-5
9058.593750; 1.02166E-4
9064.453125; 1.07159E-4
9070.312500; 1.08211E-4
9076.171875; 1.12255E-4
9082.031250; 1.10342E-4
9087.890625; 1.11063E-4
9093.750000; 1.17240E-4
9099.609375; 1.22722E-4
9105.468750; 1.03918E-4
9111.328125; 9.53247E-5
9117.187500; 1.01901E-4
9123.046875; 1.04743E-4
9128.906250; 1.02829E-4
9134.765625; 1.17559E-4
9140.625000; 1.19841E-4
9146.484375; 1.14621E-4
9152.343750; 1.06293E-4
9158.203125; 9.56541E-5
9164.062500; 9.32442E-5
9169.921875; 1.00427E-4
9175.781250; 1.01276E-4
9181.640625; 1.05322E-4
9187.500000; 9.39818E-5
9193.359375; 9.37072E-5
9199.218750; 1.02258E-4
9205.078125; 9.62054E-5
9210.937500; 1.01087E-4
9216.796875; 1.02034E-4
9222.656250; 1.04612E-4
9228.515625; 1.02127E-4
9234.375000; 1.01353E-4
9240.234375; 9.37831E-5
9246.093750; 9.79966E-5
9251.953125; 1.08747E-4
9257.812500; 1.01016E-4
9263.671875; 1.09348E-4
9269.531250; 1.10096E-4
9275.390625; 9.68200E-5
9281.250000; 1.10693E-4
9287.109375; 1.06917E-4
9292.968750; 1.03557E-4
9298.828125; 9.29007E-5
9304.687500; 9.42555E-5
9310.546875; 9.67487E-5
9316.406250; 8.97224E-5
9322.265625; 9.84009E-5
9328.125000; 9.00409E-5
9333.984375; 9.70766E-5
9339.843750; 9.51856E-5
9345.703125; 1.01546E-4
9351.562500; 9.78216E-5
9357.421875; 1.05354E-4
9363.281250; 1.04667E-4
9369.140625; 1.05073E-4
9375.000000; 1.04535E-4
9380.859375; 1.01375E-4
9386.718750; 1.01086E-4
9392.578125; 1.01811E-4
9398.437500; 1.02169E-4
9404.296875; 1.03556E-4
9410.156250; 1.08029E-4
9416.015625; 1.13757E-4
9421.875000; 1.03988E-4
9427.734375; 1.02595E-4
9433.593750; 1.04664E-4
9439.453125; 1.05473E-4
9445.312500; 9.91656E-5
9451.171875; 1.08672E-4
9457.031250; 1.08401E-4
9462.890625; 1.05040E-4
9468.750000; 1.07405E-4
9474.609375; 1.00892E-4
9480.468750; 1.03365E-4
9486.328125; 1.07934E-4
9492.187500; 9.68084E-5
9498.046875; 9.99764E-5
9503.906250; 1.01533E-4
9509.765625; 1.00217E-4
9515.625000; 9.92429E-5
9521.484375; 9.94872E-5
9527.343750; 9.96621E-5
9533.203125; 1.03392E-4
9539.062500; 9.87544E-5
9544.921875; 1.05412E-4
9550.781250; 1.12433E-4
9556.640625; 9.86264E-5
9562.500000; 9.91450E-5
9568.359375; 9.40471E-5
9574.218750; 9.65894E-5
9580.078125; 9.05040E-5
9585.937500; 9.54660E-5
9591.796875; 9.94663E-5
9597.656250; 1.03993E-4
9603.515625; 1.04716E-4
9609.375000; 1.04276E-4
9615.234375; 1.07515E-4
9621.093750; 9.42823E-5
9626.953125; 9.78182E-5
9632.812500; 9.63051E-5
9638.671875; 9.40479E-5
9644.531250; 9.32162E-5
9650.390625; 9.53504E-5
9656.250000; 9.77016E-5
9662.109375; 1.09365E-4
9667.968750; 1.07921E-4
9673.828125; 1.03332E-4
9679.687500; 9.60375E-5
9685.546875; 9.72062E-5
9691.406250; 1.06037E-4
9697.265625; 1.15539E-4
9703.125000; 1.18758E-4
9708.984375; 1.12405E-4
9714.843750; 1.14219E-4
9720.703125; 9.43995E-5
9726.562500; 1.02328E-4
9732.421875; 1.04619E-4
9738.281250; 1.03400E-4
9744.140625; 1.03635E-4
9750.000000; 1.01054E-4
9755.859375; 9.96171E-5
9761.718750; 1.05433E-4
9767.578125; 1.11674E-4
9773.437500; 1.06555E-4
9779.296875; 9.82005E-5
9785.156250; 9.10348E-5
9791.015625; 9.73751E-5
9796.875000; 1.02681E-4
9802.734375; 1.11743E-4
9808.593750; 1.05284E-4
9814.453125; 9.80256E-5
9820.312500; 1.03385E-4
9826.171875; 9.81860E-5
9832.031250; 9.81853E-5
9837.890625; 9.39785E-5
9843.750000; 9.28921E-5
9849.609375; 1.06858E-4
9855.468750; 1.02694E-4
9861.328125; 9.91929E-5
9867.187500; 1.03217E-4
9873.046875; 1.00686E-4
9878.906250; 1.00000E-4
9884.765625; 9.43664E-5
9890.625000; 1.06294E-4
9896.484375; 1.04202E-4
9902.343750; 1.00288E-4
9908.203125; 1.05095E-4
9914.062500; 9.92689E-5
9919.921875; 9.30548E-5
9925.781250; 8.71546E-5
9931.640625; 9.38744E-5
9937.500000; 1.09019E-4
9943.359375; 1.14050E-4
9949.218750; 1.08132E-4
9955.078125; 1.00821E-4
9960.937500; 9.44177E-5
9966.796875; 1.02696E-4
9972.656250; 1.00795E-4
9978.515625; 1.00806E-4
9984.375000; 1.06493E-4
9990.234375; 1.05605E-4
9996.093750; 1.06038E-4
10001.953125; 1.22931E-4
10007.812500; 1.20200E-4
10013.671875; 9.53609E-5
10019.531250; 9.35210E-5
10025.390625; 1.04165E-4
10031.250000; 1.00779E-4
10037.109375; 1.04736E-4
10042.968750; 1.14028E-4
10048.828125; 1.07393E-4
10054.687500; 1.06073E-4
10060.546875; 1.14732E-4
10066.406250; 1.08496E-4
10072.265625; 1.12551E-4
10078.125000; 1.08498E-4
10083.984375; 1.11519E-4
10089.843750; 1.15062E-4
10095.703125; 9.37698E-5
10101.562500; 9.60465E-5
10107.421875; 1.04888E-4
10113.281250; 1.06530E-4
10119.140625; 1.03648E-4
10125.000000; 1.12148E-4
10130.859375; 1.01440E-4
10136.718750; 1.01560E-4
10142.578125; 9.68697E-5
10148.437500; 9.59655E-5
10154.296875; 1.04119E-4
10160.156250; 9.79181E-5
10166.015625; 9.62066E-5
10171.875000; 1.00909E-4
10177.734375; 9.73456E-5
10183.593750; 1.00625E-4
10189.453125; 9.20699E-5
10195.312500; 9.76764E-5
10201.171875; 9.70136E-5
10207.031250; 9.79133E-5
10212.890625; 1.02678E-4
10218.750000; 9.55155E-5
10224.609375; 9.24094E-5
10230.468750; 1.05518E-4
10236.328125; 1.07545E-4
10242.187500; 1.05330E-4
10248.046875; 9.91868E-5
10253.906250; 1.03853E-4
10259.765625; 1.00396E-4
10265.625000; 1.05873E-4
10271.484375; 1.00881E-4
10277.343750; 1.01249E-4
10283.203125; 9.93129E-5
10289.062500; 9.81961E-5
10294.921875; 9.67192E-5
10300.781250; 1.11016E-4
10306.640625; 1.11387E-4
10312.500000; 1.08194E-4
10318.359375; 1.09728E-4
10324.218750; 1.03169E-4
10330.078125; 1.08033E-4
10335.937500; 9.95115E-5
10341.796875; 1.06698E-4
10347.656250; 9.77028E-5
10353.515625; 1.03621E-4
10359.375000; 1.06156E-4
10365.234375; 1.09391E-4
10371.093750; 1.01201E-4
10376.953125; 1.03395E-4
10382.812500; 1.05238E-4
10388.671875; 1.08543E-4
10394.531250; 1.06603E-4
10400.390625; 1.08075E-4
10406.250000; 1.05480E-4
10412.109375; 9.91140E-5
10417.968750; 1.07599E-4
10423.828125; 9.88110E-5
10429.687500; 9.21347E-5
10435.546875; 9.73691E-5
10441.406250; 9.63976E-5
10447.265625; 9.51468E-5
10453.125000; 1.06427E-4
10458.984375; 1.06644E-4
10464.843750; 1.01263E-4
10470.703125; 9.83748E-5
10476.562500; 9.96287E-5
10482.421875; 9.98408E-5
10488.281250; 1.02109E-4
10494.140625; 1.02293E-4
10500.000000; 1.01056E-4
10505.859375; 1.12557E-4
10511.718750; 1.18284E-4
10517.578125; 1.06783E-4
10523.437500; 9.80932E-5
10529.296875; 1.02520E-4
10535.156250; 9.80846E-5
10541.015625; 9.02784E-5
10546.875000; 8.68934E-5
10552.734375; 9.47334E-5
10558.593750; 1.05565E-4
10564.453125; 1.07384E-4
10570.312500; 1.01885E-4
10576.171875; 1.05497E-4
10582.031250; 9.62439E-5
10587.890625; 9.41197E-5
10593.750000; 9.96587E-5
10599.609375; 1.15200E-4
10605.468750; 1.04792E-4
10611.328125; 1.02728E-4
10617.187500; 1.07778E-4
10623.046875; 1.02972E-4
10628.906250; 1.07553E-4
10634.765625; 1.02481E-4
10640.625000; 1.05190E-4
10646.484375; 1.05215E-4
10652.343750; 9.82720E-5
10658.203125; 1.01723E-4
10664.062500; 9.87188E-5
10669.921875; 1.02355E-4
10675.781250; 1.08325E-4
10681.640625; 1.08874E-4
10687.500000; 1.03468E-4
10693.359375; 1.02014E-4
10699.218750; 1.08903E-4
10705.078125; 1.02269E-4
10710.937500; 1.03888E-4
10716.796875; 9.94136E-5
10722.656250; 9.33409E-5
10728.515625; 8.83530E-5
10734.375000; 8.79135E-5
10740.234375; 1.00447E-4
10746.093750; 1.09696E-4
10751.953125; 1.11264E-4
10757.812500; 1.17328E-4
10763.671875; 1.16563E-4
10769.531250; 1.10276E-4
10775.390625; 1.01920E-4
10781.250000; 1.02465E-4
10787.109375; 1.06740E-4
10792.968750; 9.81799E-5
10798.828125; 9.73118E-5
10804.687500; 9.77277E-5
10810.546875; 9.43730E-5
10816.406250; 1.00589E-4
10822.265625; 9.22356E-5
10828.125000; 1.00649E-4
10833.984375; 1.01879E-4
10839.843750; 1.02274E-4
10845.703125; 9.91708E-5
10851.562500; 1.00272E-4
10857.421875; 9.20710E-5
10863.281250; 1.00353E-4
10869.140625; 1.07830E-4
10875.000000; 1.07313E-4
10880.859375; 1.06066E-4
10886.718750; 9.68123E-5
10892.578125; 9.36687E-5
10898.437500; 9.39702E-5
10904.296875; 1.00785E-4
10910.156250; 9.86699E-5
10916.015625; 1.02172E-4
10921.875000; 1.08010E-4
10927.734375; 9.52627E-5
10933.593750; 9.25536E-5
10939.453125; 9.47687E-5
10945.312500; 1.04419E-4
10951.171875; 1.17500E-4
10957.031250; 1.10615E-4
10962.890625; 9.59356E-5
10968.750000; 9.26152E-5
10974.609375; 1.09962E-4
10980.468750; 1.01425E-4
10986.328125; 9.50879E-5
10992.187500; 1.00325E-4
10998.046875; 1.00501E-4
11003.906250; 1.04823E-4
11009.765625; 1.04032E-4
11015.625000; 1.03898E-4
11021.484375; 1.07659E-4
11027.343750; 1.11351E-4
11033.203125; 1.03135E-4
11039.062500; 1.02579E-4
11044.921875; 1.05623E-4
11050.781250; 1.01616E-4
11056.640625; 9.75604E-5
11062.500000; 1.02508E-4
11068.359375; 1.10578E-4
11074.218750; 1.05615E-4
11080.078125; 9.79150E-5
11085.937500; 1.02371E-4
11091.796875; 1.00696E-4
11097.656250; 9.29229E-5
11103.515625; 9.06183E-5
11109.375000; 1.00155E-4
11115.234375; 1.09206E-4
11121.093750; 1.00004E-4
11126.953125; 1.06757E-4
11132.812500; 1.05009E-4
11138.671875; 9.95359E-5
11144.531250; 1.01690E-4
11150.390625; 1.01609E-4
11156.250000; 9.93842E-5
11162.109375; 9.74570E-5
11167.968750; 9.47504E-5
11173.828125; 1.05783E-4
11179.687500; 1.07674E-4
11185.546875; 9.65383E-5
11191.406250; 9.70087E-5
11197.265625; 9.76507E-5
11203.125000; 1.00620E-4
11208.984375; 1.07054E-4
11214.843750; 1.01920E-4
11220.703125; 9.44393E-5
11226.562500; 1.03508E-4
11232.421875; 1.03551E-4
11238.281250; 1.00152E-4
11244.140625; 1.02039E-4
11250.000000; 1.10814E-4
11255.859375; 1.03223E-4
11261.718750; 1.01201E-4
11267.578125; 1.08544E-4
11273.437500; 9.60170E-5
11279.296875; 9.85200E-5
11285.156250; 1.04033E-4
11291.015625; 1.04440E-4
11296.875000; 9.81108E-5
11302.734375; 9.37794E-5
11308.593750; 9.64275E-5
11314.453125; 1.01557E-4
11320.312500; 1.12824E-4
11326.171875; 1.06793E-4
11332.031250; 1.08201E-4
11337.890625; 1.05721E-4
11343.750000; 9.52541E-5
11349.609375; 1.06151E-4
11355.468750; 1.01328E-4
11361.328125; 9.69573E-5
11367.187500; 9.82832E-5
11373.046875; 1.10913E-4
11378.906250; 1.11764E-4
11384.765625; 1.05801E-4
11390.625000; 1.03627E-4
11396.484375; 1.07328E-4
11402.343750; 9.66086E-5
11408.203125; 9.37044E-5
11414.062500; 1.05801E-4
11419.921875; 1.16710E-4
11425.781250; 1.14195E-4
11431.640625; 1.09575E-4
11437.500000; 1.00312E-4
11443.359375; 1.05013E-4
11449.218750; 1.01311E-4
11455.078125; 9.90102E-5
11460.937500; 9.48281E-5
11466.796875; 9.24625E-5
11472.656250; 9.68198E-5
11478.515625; 1.01742E-4
11484.375000; 1.06004E-4
11490.234375; 1.02953E-4
11496.093750; 9.79420E-5
11501.953125; 9.45171E-5
11507.812500; 9.53366E-5
11513.671875; 1.01481E-4
11519.531250; 9.57009E-5
11525.390625; 9.86989E-5
11531.250000; 9.66353E-5
11537.109375; 1.02236E-4
11542.968750; 1.09361E-4
11548.828125; 9.88091E-5
11554.687500; 9.36669E-5
11560.546875; 9.50357E-5
11566.406250; 9.94960E-5
11572.265625; 9.88711E-5
11578.125000; 9.51731E-5
11583.984375; 1.01763E-4
11589.843750; 1.00237E-4
11595.703125; 9.69478E-5
11601.562500; 9.99435E-5
11607.421875; 9.78246E-5
11613.281250; 8.89960E-5
11619.140625; 1.02918E-4
11625.000000; 1.13834E-4
11630.859375; 1.08565E-4
11636.718750; 9.46258E-5
11642.578125; 9.59892E-5
11648.437500; 9.48758E-5
11654.296875; 9.88008E-5
11660.156250; 1.00114E-4
11666.015625; 9.70965E-5
11671.875000; 1.10498E-4
11677.734375; 1.09990E-4
11683.593750; 1.02442E-4
11689.453125; 9.70539E-5
11695.312500; 9.45444E-5
11701.171875; 9.92331E-5
11707.031250; 1.07341E-4
11712.890625; 1.09685E-4
11718.750000; 1.04969E-4
11724.609375; 1.05891E-4
11730.468750; 1.02576E-4
11736.328125; 9.70869E-5
11742.187500; 8.96189E-5
11748.046875; 9.29538E-5
11753.906250; 9.17485E-5
11759.765625; 9.95245E-5
11765.625000; 1.01152E-4
11771.484375; 1.08584E-4
11777.343750; 1.04542E-4
11783.203125; 9.91447E-5
11789.062500; 1.07261E-4
11794.921875; 9.95027E-5
11800.781250; 9.92154E-5
11806.640625; 1.10639E-4
11812.500000; 1.17457E-4
11818.359375; 1.06367E-4
11824.218750; 1.00010E-4
11830.078125; 1.04867E-4
11835.937500; 9.31292E-5
11841.796875; 1.00447E-4
11847.656250; 8.60679E-5
11853.515625; 8.80029E-5
11859.375000; 1.10273E-4
11865.234375; 1.16242E-4
11871.093750; 9.96689E-5
11876.953125; 1.14968E-4
11882.812500; 1.11391E-4
11888.671875; 1.08295E-4
11894.531250; 1.00743E-4
11900.390625; 1.00208E-4
11906.250000; 1.02501E-4
11912.109375; 1.02383E-4
11917.968750; 1.02420E-4
11923.828125; 1.07828E-4
11929.687500; 9.94403E-5
11935.546875; 9.71747E-5
11941.406250; 1.06111E-4
11947.265625; 9.66461E-5
11953.125000; 8.92565E-5
11958.984375; 9.73729E-5
11964.843750; 9.66713E-5
11970.703125; 9.72589E-5
11976.562500; 9.33663E-5
11982.421875; 8.74714E-5
11988.281250; 9.63396E-5
11994.140625; 1.04379E-4
12000.000000; 9.78480E-5
12005.859375; 9.18510E-5
12011.718750; 1.00669E-4
12017.578125; 1.02513E-4
12023.437500; 9.52010E-5
12029.296875; 9.69756E-5
12035.156250; 9.87288E-5
12041.015625; 1.02943E-4
12046.875000; 1.05691E-4
12052.734375; 1.09469E-4
12058.593750; 1.00564E-4
12064.453125; 9.52962E-5
12070.312500; 1.03252E-4
12076.171875; 9.90520E-5
12082.031250; 9.48733E-5
12087.890625; 9.66532E-5
12093.750000; 1.02739E-4
12099.609375; 1.04682E-4
12105.468750; 9.79425E-5
12111.328125; 1.05124E-4
12117.187500; 1.11523E-4
12123.046875; 1.11726E-4
12128.906250; 1.13462E-4
12134.765625; 1.02190E-4
12140.625000; 9.58825E-5
12146.484375; 1.02732E-4
12152.343750; 1.18945E-4
12158.203125; 1.16997E-4
12164.062500; 1.05340E-4
12169.921875; 9.79996E-5
12175.781250; 1.06498E-4
12181.640625; 1.04045E-4
12187.500000; 1.08084E-4
12193.359375; 1.01209E-4
12199.218750; 8.71982E-5
12205.078125; 9.51504E-5
12210.937500; 1.10314E-4
12216.796875; 1.06060E-4
12222.656250; 9.68938E-5
12228.515625; 9.26148E-5
12234.375000; 1.02346E-4
12240.234375; 9.85090E-5
12246.093750; 1.11365E-4
12251.953125; 1.05138E-4
12257.812500; 1.05228E-4
12263.671875; 9.74608E-5
12269.531250; 1.02665E-4
12275.390625; 9.92955E-5
12281.250000; 1.02989E-4
12287.109375; 1.02667E-4
12292.968750; 9.50100E-5
12298.828125; 9.62762E-5
12304.687500; 9.60198E-5
12310.546875; 8.90817E-5
12316.406250; 8.77951E-5
12322.265625; 9.86176E-5
12328.125000; 1.07000E-4
12333.984375; 9.71038E-5
12339.843750; 1.00993E-4
12345.703125; 1.08106E-4
12351.562500; 1.06416E-4
12357.421875; 1.04324E-4
12363.281250; 1.10659E-4
12369.140625; 1.04449E-4
12375.000000; 9.55159E-5
12380.859375; 9.37258E-5
12386.718750; 9.91044E-5
12392.578125; 1.06605E-4
12398.437500; 1.09853E-4
12404.296875; 1.09650E-4
12410.156250; 1.13195E-4
12416.015625; 1.07876E-4
12421.875000; 9.91433E-5
12427.734375; 9.75378E-5
12433.593750; 9.51109E-5
12439.453125; 9.67340E-5
12445.312500; 1.06242E-4
12451.171875; 9.93510E-5
12457.031250; 9.26725E-5
12462.890625; 9.77010E-5
12468.750000; 9.63003E-5
12474.609375; 1.01604E-4
12480.468750; 1.05655E-4
12486.328125; 9.68162E-5
12492.187500; 9.98036E-5
12498.046875; 9.63595E-5
12503.906250; 1.04335E-4
12509.765625; 1.03433E-4
12515.625000; 9.97991E-5
12521.484375; 1.02379E-4
12527.343750; 1.04594E-4
12533.203125; 1.11358E-4
12539.062500; 9.84188E-5
12544.921875; 1.09321E-4
12550.781250; 1.05285E-4
12556.640625; 1.04943E-4
12562.500000; 1.06582E-4
12568.359375; 9.92822E-5
12574.218750; 1.05050E-4
12580.078125; 1.12584E-4
12585.937500; 1.05469E-4
12591.796875; 1.01726E-4
12597.656250; 1.02903E-4
12603.515625; 1.00629E-4
12609.375000; 1.04600E-4
12615.234375; 1.04360E-4
12621.093750; 1.02972E-4
12626.953125; 1.03572E-4
12632.812500; 1.08861E-4
12638.671875; 1.11758E-4
12644.531250; 1.16070E-4
12650.390625; 1.02276E-4
12656.250000; 9.34118E-5
12662.109375; 1.05066E-4
12667.968750; 1.08112E-4
12673.828125; 9.64968E-5
12679.687500; 1.04015E-4
12685.546875; 9.85636E-5
12691.406250; 9.71163E-5
12697.265625; 1.01430E-4
12703.125000; 9.54654E-5
12708.984375; 1.00452E-4
12714.843750; 1.10151E-4
12720.703125; 1.14840E-4
12726.562500; 1.05380E-4
12732.421875; 9.93088E-5
12738.281250; 1.00552E-4
12744.140625; 9.68069E-5
12750.000000; 9.82746E-5
12755.859375; 1.03371E-4
12761.718750; 1.01916E-4
12767.578125; 1.07158E-4
12773.437500; 1.05119E-4
12779.296875; 1.07333E-4
12785.156250; 1.14772E-4
12791.015625; 1.12891E-4
12796.875000; 1.06390E-4
12802.734375; 1.03578E-4
12808.593750; 9.56496E-5
12814.453125; 1.03337E-4
12820.312500; 1.02394E-4
12826.171875; 1.02087E-4
12832.031250; 1.02546E-4
12837.890625; 1.00630E-4
12843.750000; 1.03556E-4
12849.609375; 1.04571E-4
12855.468750; 1.04961E-4
12861.328125; 9.61263E-5
12867.187500; 9.39619E-5
12873.046875; 9.20949E-5
12878.906250; 9.72683E-5
12884.765625; 1.03295E-4
12890.625000; 1.00502E-4
12896.484375; 9.98198E-5
12902.343750; 9.86564E-5
12908.203125; 9.80920E-5
12914.062500; 8.96500E-5
12919.921875; 9.15705E-5
12925.781250; 1.01561E-4
12931.640625; 1.09433E-4
12937.500000; 9.83891E-5
12943.359375; 9.61234E-5
12949.218750; 9.81762E-5
12955.078125; 9.97989E-5
12960.937500; 1.03786E-4
12966.796875; 9.70557E-5
12972.656250; 9.93553E-5
12978.515625; 1.04001E-4
12984.375000; 1.00345E-4
12990.234375; 9.38873E-5
12996.093750; 9.77736E-5
13001.953125; 1.05053E-4
13007.812500; 9.96988E-5
13013.671875; 1.01832E-4
13019.531250; 9.65753E-5
13025.390625; 9.59949E-5
13031.250000; 9.22175E-5
13037.109375; 1.02695E-4
13042.968750; 1.11689E-4
13048.828125; 1.03250E-4
13054.687500; 1.09119E-4
13060.546875; 1.11945E-4
13066.406250; 1.03644E-4
13072.265625; 1.02308E-4
13078.125000; 9.32611E-5
13083.984375; 9.77142E-5
13089.843750; 1.01539E-4
13095.703125; 1.00458E-4
13101.562500; 9.22351E-5
13107.421875; 9.13979E-5
13113.281250; 9.49293E-5
13119.140625; 9.61921E-5
13125.000000; 1.00438E-4
13130.859375; 1.07374E-4
13136.718750; 1.01403E-4
13142.578125; 9.77940E-5
13148.437500; 8.95255E-5
13154.296875; 8.71441E-5
13160.156250; 1.01381E-4
13166.015625; 9.65979E-5
13171.875000; 1.04078E-4
13177.734375; 1.12156E-4
13183.593750; 1.16012E-4
13189.453125; 1.07139E-4
13195.312500; 9.55414E-5
13201.171875; 9.43843E-5
13207.031250; 1.01745E-4
13212.890625; 1.01367E-4
13218.750000; 9.46943E-5
13224.609375; 1.08274E-4
13230.468750; 1.09321E-4
13236.328125; 1.06922E-4
13242.187500; 1.02896E-4
13248.046875; 8.68866E-5
13253.906250; 8.90375E-5
13259.765625; 8.64473E-5
13265.625000; 9.19423E-5
13271.484375; 8.98505E-5
13277.343750; 9.37681E-5
13283.203125; 9.07849E-5
13289.062500; 1.03713E-4
13294.921875; 1.05313E-4
13300.781250; 9.84874E-5
13306.640625; 1.04796E-4
13312.500000; 1.04835E-4
13318.359375; 1.10567E-4
13324.218750; 1.08506E-4
13330.078125; 9.71980E-5
13335.937500; 9.18622E-5
13341.796875; 9.82821E-5
13347.656250; 9.76702E-5
13353.515625; 9.89704E-5
13359.375000; 1.04588E-4
13365.234375; 1.18013E-4
13371.093750; 1.13030E-4
13376.953125; 1.05899E-4
13382.812500; 1.06573E-4
13388.671875; 1.02835E-4
13394.531250; 1.04059E-4
13400.390625; 9.81733E-5
13406.250000; 1.03895E-4
13412.109375; 1.04612E-4
13417.968750; 1.07118E-4
13423.828125; 1.12024E-4
13429.687500; 9.96747E-5
13435.546875; 9.97063E-5
13441.406250; 9.67333E-5
13447.265625; 1.02721E-4
13453.125000; 9.65348E-5
13458.984375; 9.76920E-5
13464.843750; 1.17920E-4
13470.703125; 1.10279E-4
13476.562500; 9.57829E-5
13482.421875; 9.60406E-5
13488.281250; 9.64260E-5
13494.140625; 1.14824E-4
13500.000000; 1.09715E-4
13505.859375; 1.01368E-4
13511.718750; 9.91284E-5
13517.578125; 1.02759E-4
13523.437500; 9.01284E-5
13529.296875; 9.00078E-5
13535.156250; 9.17690E-5
13541.015625; 1.01737E-4
13546.875000; 1.03325E-4
13552.734375; 9.95850E-5
13558.593750; 9.39591E-5
13564.453125; 9.12826E-5
13570.312500; 9.36296E-5
13576.171875; 9.70873E-5
13582.031250; 1.04058E-4
13587.890625; 1.08684E-4
13593.750000; 1.10591E-4
13599.609375; 9.82177E-5
13605.468750; 1.07347E-4
13611.328125; 1.01339E-4
13617.187500; 1.03949E-4
13623.046875; 1.18465E-4
13628.906250; 1.16534E-4
13634.765625; 1.10919E-4
13640.625000; 1.10449E-4
13646.484375; 1.11151E-4
13652.343750; 1.05514E-4
13658.203125; 1.04011E-4
13664.062500; 1.09040E-4
13669.921875; 1.09493E-4
13675.781250; 1.00703E-4
13681.640625; 1.05461E-4
13687.500000; 9.78792E-5
13693.359375; 9.13381E-5
13699.218750; 9.63574E-5
13705.078125; 9.63079E-5
13710.937500; 9.94707E-5
13716.796875; 9.73604E-5
13722.656250; 1.05391E-4
13728.515625; 1.01620E-4
13734.375000; 1.02413E-4
13740.234375; 1.01426E-4
13746.093750; 1.00506E-4
13751.953125; 9.89990E-5
13757.812500; 1.04111E-4
13763.671875; 1.00234E-4
13769.531250; 1.08837E-4
13775.390625; 1.06633E-4
13781.250000; 9.96414E-5
13787.109375; 1.03724E-4
13792.968750; 9.67398E-5
13798.828125; 1.07288E-4
13804.687500; 1.04661E-4
13810.546875; 1.01712E-4
13816.406250; 9.34806E-5
13822.265625; 9.44072E-5
13828.125000; 9.43181E-5
13833.984375; 8.46784E-5
13839.843750; 9.94607E-5
13845.703125; 1.02172E-4
13851.562500; 1.04933E-4
13857.421875; 1.02332E-4
13863.281250; 1.05466E-4
13869.140625; 1.05794E-4
13875.000000; 1.03171E-4
13880.859375; 8.64987E-5
13886.718750; 9.46796E-5
13892.578125; 9.38968E-5
13898.437500; 9.34565E-5
13904.296875; 9.55199E-5
13910.156250; 1.02308E-4
13916.015625; 1.07795E-4
13921.875000; 9.93731E-5
13927.734375; 9.75983E-5
13933.593750; 1.12010E-4
13939.453125; 1.09396E-4
13945.312500; 9.79140E-5
13951.171875; 1.09895E-4
13957.031250; 1.11278E-4
13962.890625; 1.02126E-4
13968.750000; 9.66964E-5
13974.609375; 1.02982E-4
13980.468750; 1.02630E-4
13986.328125; 9.87238E-5
13992.187500; 9.36436E-5
13998.046875; 9.63319E-5
14003.906250; 9.86012E-5
14009.765625; 1.01459E-4
14015.625000; 1.02176E-4
14021.484375; 1.01533E-4
14027.343750; 9.83778E-5
14033.203125; 1.08295E-4
14039.062500; 1.00115E-4
14044.921875; 1.03754E-4
14050.781250; 9.68897E-5
14056.640625; 9.56501E-5
14062.500000; 9.16849E-5
14068.359375; 9.76238E-5
14074.218750; 8.87341E-5
14080.078125; 8.84360E-5
14085.937500; 9.57319E-5
14091.796875; 9.42504E-5
14097.656250; 1.06531E-4
14103.515625; 9.80033E-5
14109.375000; 1.01176E-4
14115.234375; 9.41125E-5
14121.093750; 9.52564E-5
14126.953125; 9.03489E-5
14132.812500; 9.41236E-5
14138.671875; 1.02334E-4
14144.531250; 8.99164E-5
14150.390625; 8.84381E-5
14156.250000; 9.92701E-5
14162.109375; 9.93749E-5
14167.968750; 9.71853E-5
14173.828125; 9.74958E-5
14179.687500; 9.68633E-5
14185.546875; 9.31475E-5
14191.406250; 9.59639E-5
14197.265625; 9.83026E-5
14203.125000; 9.34518E-5
14208.984375; 9.48936E-5
14214.843750; 8.94646E-5
14220.703125; 1.02194E-4
14226.562500; 1.06313E-4
14232.421875; 1.04360E-4
14238.281250; 1.02480E-4
14244.140625; 1.09934E-4
14250.000000; 1.18082E-4
14255.859375; 1.12235E-4
14261.718750; 1.06153E-4
14267.578125; 9.65589E-5
14273.437500; 1.05029E-4
14279.296875; 1.04109E-4
14285.156250; 9.94512E-5
14291.015625; 9.79772E-5
14296.875000; 9.16503E-5
14302.734375; 9.55943E-5
14308.593750; 9.42650E-5
14314.453125; 1.05748E-4
14320.312500; 1.15584E-4
14326.171875; 1.19353E-4
14332.031250; 1.09711E-4
14337.890625; 9.85687E-5
14343.750000; 1.02126E-4
14349.609375; 9.25678E-5
14355.468750; 8.96779E-5
14361.328125; 1.01716E-4
14367.187500; 1.05092E-4
14373.046875; 1.01555E-4
14378.906250; 1.00132E-4
14384.765625; 9.56683E-5
14390.625000; 9.81365E-5
14396.484375; 1.01757E-4
14402.343750; 9.84741E-5
14408.203125; 8.57901E-5
14414.062500; 9.00152E-5
14419.921875; 9.51375E-5
14425.781250; 9.46537E-5
14431.640625; 9.60755E-5
14437.500000; 9.97300E-5
14443.359375; 1.00153E-4
14449.218750; 1.03012E-4
14455.078125; 1.07652E-4
14460.937500; 1.00102E-4
14466.796875; 9.88239E-5
14472.656250; 1.04322E-4
14478.515625; 9.82232E-5
14484.375000; 1.05850E-4
14490.234375; 1.00936E-4
14496.093750; 8.90721E-5
14501.953125; 9.26389E-5
14507.812500; 1.00504E-4
14513.671875; 1.06368E-4
14519.531250; 9.88438E-5
14525.390625; 9.34799E-5
14531.250000; 8.85398E-5
14537.109375; 1.00963E-4
14542.968750; 1.12071E-4
14548.828125; 1.17169E-4
14554.687500; 1.17878E-4
14560.546875; 1.07247E-4
14566.406250; 1.04128E-4
14572.265625; 1.01765E-4
14578.125000; 9.97978E-5
14583.984375; 9.36752E-5
14589.843750; 9.54112E-5
14595.703125; 1.02071E-4
14601.562500; 1.02635E-4
14607.421875; 1.03876E-4
14613.281250; 1.02332E-4
14619.140625; 1.00070E-4
14625.000000; 9.97104E-5
14630.859375; 1.04603E-4
14636.718750; 9.58964E-5
14642.578125; 1.02233E-4
14648.437500; 9.06435E-5
14654.296875; 9.80401E-5
14660.156250; 1.03645E-4
14666.015625; 1.06850E-4
14671.875000; 9.69052E-5
14677.734375; 9.96073E-5
14683.593750; 1.00540E-4
14689.453125; 1.04055E-4
14695.312500; 1.03612E-4
14701.171875; 9.85789E-5
14707.031250; 8.46242E-5
14712.890625; 9.78303E-5
14718.750000; 9.79814E-5
14724.609375; 1.08982E-4
14730.468750; 1.10386E-4
14736.328125; 1.02791E-4
14742.187500; 9.89777E-5
14748.046875; 9.84920E-5
14753.906250; 9.38139E-5
14759.765625; 9.48927E-5
14765.625000; 9.83693E-5
14771.484375; 1.03924E-4
14777.343750; 1.03921E-4
14783.203125; 1.12396E-4
14789.062500; 9.94504E-5
14794.921875; 9.33705E-5
14800.781250; 9.93535E-5
14806.640625; 9.52169E-5
14812.500000; 9.83629E-5
14818.359375; 9.77159E-5
14824.218750; 8.28904E-5
14830.078125; 9.35354E-5
14835.937500; 9.92672E-5
14841.796875; 9.79106E-5
14847.656250; 9.66728E-5
14853.515625; 1.02291E-4
14859.375000; 1.01367E-4
14865.234375; 9.58989E-5
14871.093750; 1.07193E-4
14876.953125; 1.06950E-4
14882.812500; 9.94234E-5
14888.671875; 9.17183E-5
14894.531250; 9.69850E-5
14900.390625; 1.03393E-4
14906.250000; 9.62143E-5
14912.109375; 9.28590E-5
14917.968750; 9.84124E-5
14923.828125; 1.04194E-4
14929.687500; 9.19927E-5
14935.546875; 9.78578E-5
14941.406250; 8.97343E-5
14947.265625; 9.31980E-5
14953.125000; 1.04714E-4
14958.984375; 9.56601E-5
14964.843750; 9.22870E-5
14970.703125; 1.08261E-4
14976.562500; 1.14966E-4
14982.421875; 1.07565E-4
14988.281250; 9.82185E-5
14994.140625; 9.92794E-5
15000.000000; 1.04721E-4
15005.859375; 1.06643E-4
15011.718750; 1.11221E-4
15017.578125; 1.12904E-4
15023.437500; 1.02634E-4
15029.296875; 9.06145E-5
15035.156250; 9.44786E-5
15041.015625; 1.06626E-4
15046.875000; 1.01335E-4
15052.734375; 9.77876E-5
15058.593750; 9.98557E-5
15064.453125; 9.81901E-5
15070.312500; 1.05653E-4
15076.171875; 1.07496E-4
15082.031250; 9.38208E-5
15087.890625; 8.99544E-5
15093.750000; 1.02352E-4
15099.609375; 1.00708E-4
15105.468750; 1.00121E-4
15111.328125; 9.75252E-5
15117.187500; 9.06893E-5
15123.046875; 9.68018E-5
15128.906250; 9.05536E-5
15134.765625; 9.70010E-5
15140.625000; 9.47234E-5
15146.484375; 9.74396E-5
15152.343750; 9.56937E-5
15158.203125; 9.43921E-5
15164.062500; 9.79382E-5
15169.921875; 9.73692E-5
15175.781250; 9.33599E-5
15181.640625; 9.88391E-5
15187.500000; 1.01936E-4
15193.359375; 8.91516E-5
15199.218750; 9.16479E-5
15205.078125; 9.77712E-5
15210.937500; 1.06058E-4
15216.796875; 1.09780E-4
15222.656250; 9.71131E-5
15228.515625; 8.71968E-5
15234.375000; 9.64731E-5
15240.234375; 1.00660E-4
15246.093750; 9.86195E-5
15251.953125; 9.87298E-5
15257.812500; 1.07119E-4
15263.671875; 1.11204E-4
15269.531250; 1.06387E-4
15275.390625; 9.95210E-5
15281.250000; 1.02012E-4
15287.109375; 9.97519E-5
15292.968750; 1.02394E-4
15298.828125; 9.83481E-5
15304.687500; 9.94702E-5
15310.546875; 8.75545E-5
15316.406250; 8.43932E-5
15322.265625; 9.55200E-5
15328.125000; 1.06068E-4
15333.984375; 1.07572E-4
15339.843750; 1.00153E-4
15345.703125; 1.02727E-4
15351.562500; 9.60238E-5
15357.421875; 9.83852E-5
15363.281250; 9.47059E-5
15369.140625; 1.03361E-4
15375.000000; 1.08508E-4
15380.859375; 1.04428E-4
15386.718750; 1.07277E-4
15392.578125; 1.04919E-4
15398.437500; 9.75104E-5
15404.296875; 9.34368E-5
15410.156250; 1.03815E-4
15416.015625; 1.02667E-4
15421.875000; 1.02213E-4
15427.734375; 9.73245E-5
15433.593750; 8.79625E-5
15439.453125; 8.80855E-5
15445.312500; 1.01826E-4
15451.171875; 1.02214E-4
15457.031250; 1.00215E-4
15462.890625; 9.98019E-5
15468.750000; 1.05524E-4
15474.609375; 1.15950E-4
15480.468750; 1.05676E-4
15486.328125; 9.75949E-5
15492.187500; 1.04653E-4
15498.046875; 1.10085E-4
15503.906250; 1.04132E-4
15509.765625; 9.07527E-5
15515.625000; 1.10056E-4
15521.484375; 1.11808E-4
15527.343750; 1.05857E-4
15533.203125; 1.03754E-4
15539.062500; 1.01138E-4
15544.921875; 1.04843E-4
15550.781250; 1.01431E-4
15556.640625; 9.57922E-5
15562.500000; 1.01525E-4
15568.359375; 1.06514E-4
15574.218750; 1.05583E-4
15580.078125; 1.06631E-4
15585.937500; 1.01468E-4
15591.796875; 9.23129E-5
15597.656250; 9.13073E-5
15603.515625; 9.89559E-5
15609.375000; 1.09565E-4
15615.234375; 1.06375E-4
15621.093750; 9.47602E-5
15626.953125; 1.00046E-4
15632.812500; 1.05082E-4
15638.671875; 1.12883E-4
15644.531250; 1.06717E-4
15650.390625; 1.03164E-4
15656.250000; 1.03430E-4
15662.109375; 1.05611E-4
15667.968750; 9.33840E-5
15673.828125; 9.47355E-5
15679.687500; 9.57807E-5
15685.546875; 8.98600E-5
15691.406250; 9.39440E-5
15697.265625; 9.41608E-5
15703.125000; 9.74160E-5
15708.984375; 1.07003E-4
15714.843750; 1.04322E-4
15720.703125; 9.52912E-5
15726.562500; 9.41204E-5
15732.421875; 9.71618E-5
15738.281250; 1.02119E-4
15744.140625; 1.02813E-4
15750.000000; 1.03590E-4
15755.859375; 1.00290E-4
15761.718750; 9.99553E-5
15767.578125; 9.76347E-5
15773.437500; 8.64092E-5
15779.296875; 9.86426E-5
15785.156250; 9.72632E-5
15791.015625; 9.91465E-5
15796.875000; 1.01137E-4
15802.734375; 9.78552E-5
15808.593750; 8.69324E-5
15814.453125; 9.43428E-5
15820.312500; 1.02973E-4
15826.171875; 1.05769E-4
15832.031250; 9.85439E-5
15837.890625; 8.42919E-5
15843.750000; 1.04791E-4
15849.609375; 1.09857E-4
15855.468750; 1.13581E-4
15861.328125; 1.12290E-4
15867.187500; 1.00717E-4
15873.046875; 1.01526E-4
15878.906250; 1.04890E-4
15884.765625; 9.46974E-5
15890.625000; 8.87933E-5
15896.484375; 9.27190E-5
15902.343750; 9.92732E-5
15908.203125; 1.04187E-4
15914.062500; 1.02441E-4
15919.921875; 1.05745E-4
15925.781250; 1.12506E-4
15931.640625; 1.05645E-4
15937.500000; 1.03710E-4
15943.359375; 9.67187E-5
15949.218750; 9.19705E-5
15955.078125; 1.00820E-4
15960.937500; 1.02193E-4
15966.796875; 1.03282E-4
15972.656250; 1.11688E-4
15978.515625; 1.09049E-4
15984.375000; 1.08430E-4
15990.234375; 9.03316E-5
15996.093750; 9.22778E-5
16001.953125; 1.00247E-4
16007.812500; 1.03163E-4
16013.671875; 9.92829E-5
16019.531250; 9.17956E-5
16025.390625; 1.05077E-4
16031.250000; 1.06862E-4
16037.109375; 1.01358E-4
16042.968750; 1.01699E-4
16048.828125; 9.86444E-5
16054.687500; 1.04072E-4
16060.546875; 1.09436E-4
16066.406250; 9.86015E-5
16072.265625; 9.40355E-5
16078.125000; 9.44364E-5
16083.984375; 8.97383E-5
16089.843750; 1.03424E-4
16095.703125; 9.90837E-5
16101.562500; 1.06067E-4
16107.421875; 1.03539E-4
16113.281250; 1.00301E-4
16119.140625; 1.03618E-4
16125.000000; 1.07371E-4
16130.859375; 9.90616E-5
16136.718750; 9.25790E-5
16142.578125; 1.09108E-4
16148.437500; 1.09584E-4
16154.296875; 1.09338E-4
16160.156250; 1.05155E-4
16166.015625; 9.67831E-5
16171.875000; 9.13626E-5
16177.734375; 9.80054E-5
16183.593750; 9.42563E-5
16189.453125; 1.01083E-4
16195.312500; 9.75518E-5
16201.171875; 1.02849E-4
16207.031250; 1.03764E-4
16212.890625; 1.00082E-4
16218.750000; 1.00686E-4
16224.609375; 1.03175E-4
16230.468750; 9.94369E-5
16236.328125; 9.48806E-5
16242.187500; 1.02136E-4
16248.046875; 9.48023E-5
16253.906250; 9.53126E-5
16259.765625; 1.06029E-4
16265.625000; 9.91944E-5
16271.484375; 9.90176E-5
16277.343750; 1.08100E-4
16283.203125; 1.04002E-4
16289.062500; 9.94919E-5
16294.921875; 9.84755E-5
16300.781250; 9.71946E-5
16306.640625; 9.13913E-5
16312.500000; 9.21953E-5
16318.359375; 9.94110E-5
16324.218750; 1.04579E-4
16330.078125; 1.09252E-4
16335.937500; 1.04919E-4
16341.796875; 9.83394E-5
16347.656250; 9.86452E-5
16353.515625; 9.49814E-5
16359.375000; 9.12923E-5
16365.234375; 9.83667E-5
16371.093750; 1.08340E-4
16376.953125; 1.04256E-4
16382.812500; 9.72525E-5
16388.671875; 1.07221E-4
16394.531250; 1.08619E-4
16400.390625; 9.82771E-5
16406.250000; 1.04084E-4
16412.109375; 1.03577E-4
16417.968750; 1.02065E-4
16423.828125; 1.15999E-4
16429.687500; 1.18537E-4
16435.546875; 1.04760E-4
16441.406250; 9.61975E-5
16447.265625; 8.57598E-5
16453.125000; 1.01518E-4
16458.984375; 1.12420E-4
16464.843750; 1.06069E-4
16470.703125; 9.63976E-5
16476.562500; 9.10633E-5
16482.421875; 9.59530E-5
16488.281250; 9.91147E-5
16494.140625; 9.38033E-5
16500.000000; 9.06700E-5
16505.859375; 8.72270E-5
16511.718750; 8.86887E-5
16517.578125; 9.32624E-5
16523.437500; 1.04958E-4
16529.296875; 1.15698E-4
16535.156250; 9.42705E-5
16541.015625; 8.80859E-5
16546.875000; 9.68482E-5
16552.734375; 9.53699E-5
16558.593750; 1.03024E-4
16564.453125; 1.05065E-4
16570.312500; 9.27742E-5
16576.171875; 8.97188E-5
16582.031250; 9.38723E-5
16587.890625; 9.30919E-5
16593.750000; 9.91879E-5
16599.609375; 1.04045E-4
16605.468750; 1.02760E-4
16611.328125; 9.64942E-5
16617.187500; 9.91164E-5
16623.046875; 9.73548E-5
16628.906250; 9.95453E-5
16634.765625; 9.95375E-5
16640.625000; 1.02640E-4
16646.484375; 1.11344E-4
16652.343750; 9.71649E-5
16658.203125; 9.18351E-5
16664.062500; 1.01110E-4
16669.921875; 1.01436E-4
16675.781250; 1.00091E-4
16681.640625; 1.00406E-4
16687.500000; 1.04507E-4
16693.359375; 9.14857E-5
16699.218750; 8.77998E-5
16705.078125; 8.99767E-5
16710.937500; 1.00640E-4
16716.796875; 1.02733E-4
16722.656250; 9.60114E-5
16728.515625; 1.00931E-4
16734.375000; 1.05633E-4
16740.234375; 9.89924E-5
16746.093750; 1.00759E-4
16751.953125; 1.05343E-4
16757.812500; 9.60219E-5
16763.671875; 9.42650E-5
16769.531250; 9.13430E-5
16775.390625; 9.18999E-5
16781.250000; 8.87528E-5
16787.109375; 9.22240E-5
16792.968750; 9.45862E-5
16798.828125; 1.13661E-4
16804.687500; 1.02475E-4
16810.546875; 9.58733E-5
16816.406250; 9.95961E-5
16822.265625; 9.47673E-5
16828.125000; 9.98854E-5
16833.984375; 1.06839E-4
16839.843750; 1.05627E-4
16845.703125; 9.91654E-5
16851.562500; 9.91148E-5
16857.421875; 9.83010E-5
16863.281250; 1.06800E-4
16869.140625; 1.08057E-4
16875.000000; 1.01444E-4
16880.859375; 1.02877E-4
16886.718750; 1.03593E-4
16892.578125; 9.68309E-5
16898.437500; 1.00358E-4
16904.296875; 9.87770E-5
16910.156250; 1.04363E-4
16916.015625; 1.03680E-4
16921.875000; 8.59064E-5
16927.734375; 9.18208E-5
16933.593750; 9.09519E-5
16939.453125; 1.01668E-4
16945.312500; 9.73070E-5
16951.171875; 9.17578E-5
16957.031250; 1.00991E-4
16962.890625; 9.40999E-5
16968.750000; 9.42215E-5
16974.609375; 8.76513E-5
16980.468750; 9.61589E-5
16986.328125; 1.00811E-4
16992.187500; 1.01097E-4
16998.046875; 1.02107E-4
17003.906250; 9.69757E-5
17009.765625; 1.00996E-4
17015.625000; 9.22870E-5
17021.484375; 9.39765E-5
17027.343750; 1.01052E-4
17033.203125; 9.83434E-5
17039.062500; 8.71157E-5
17044.921875; 8.16531E-5
17050.781250; 9.65526E-5
17056.640625; 1.03180E-4
17062.500000; 9.38656E-5
17068.359375; 9.86875E-5
17074.218750; 1.00634E-4
17080.078125; 9.30230E-5
17085.937500; 1.05502E-4
17091.796875; 1.04616E-4
17097.656250; 1.01734E-4
17103.515625; 1.04901E-4
17109.375000; 9.39859E-5
17115.234375; 9.10571E-5
17121.093750; 8.80535E-5
17126.953125; 8.97747E-5
17132.812500; 1.02687E-4
17138.671875; 1.07749E-4
17144.531250; 9.98111E-5
17150.390625; 1.01717E-4
17156.250000; 1.03881E-4
17162.109375; 9.93752E-5
17167.968750; 9.23446E-5
17173.828125; 1.02059E-4
17179.687500; 1.10417E-4
17185.546875; 1.02205E-4
17191.406250; 1.07881E-4
17197.265625; 9.69234E-5
17203.125000; 9.99168E-5
17208.984375; 1.10011E-4
17214.843750; 1.08190E-4
17220.703125; 1.04566E-4
17226.562500; 9.94981E-5
17232.421875; 9.53041E-5
17238.281250; 9.82636E-5
17244.140625; 9.38412E-5
17250.000000; 9.99867E-5
17255.859375; 1.13604E-4
17261.718750; 1.13386E-4
17267.578125; 1.05593E-4
17273.437500; 1.00070E-4
17279.296875; 1.08939E-4
17285.156250; 1.06055E-4
17291.015625; 9.39071E-5
17296.875000; 8.89837E-5
17302.734375; 9.93374E-5
17308.593750; 9.48925E-5
17314.453125; 9.35366E-5
17320.312500; 8.84104E-5
17326.171875; 9.64335E-5
17332.031250; 9.65806E-5
17337.890625; 9.90988E-5
17343.750000; 9.33594E-5
17349.609375; 9.04042E-5
17355.468750; 9.72528E-5
17361.328125; 9.64020E-5
17367.187500; 9.69621E-5
17373.046875; 1.01007E-4
17378.906250; 1.00798E-4
17384.765625; 9.38659E-5
17390.625000; 9.30448E-5
17396.484375; 9.76912E-5
17402.343750; 9.51345E-5
17408.203125; 9.75037E-5
17414.062500; 8.98656E-5
17419.921875; 9.78803E-5
17425.781250; 9.51154E-5
17431.640625; 9.88138E-5
17437.500000; 9.69902E-5
17443.359375; 8.74522E-5
17449.218750; 9.90840E-5
17455.078125; 1.02641E-4
17460.937500; 1.03856E-4
17466.796875; 1.14962E-4
17472.656250; 1.10435E-4
17478.515625; 9.77724E-5
17484.375000; 9.55646E-5
17490.234375; 9.15208E-5
17496.093750; 1.05835E-4
17501.953125; 1.07395E-4
17507.812500; 1.04585E-4
17513.671875; 1.07630E-4
17519.531250; 9.59385E-5
17525.390625; 9.82906E-5
17531.250000; 9.36611E-5
17537.109375; 9.53883E-5
17542.968750; 1.01894E-4
17548.828125; 1.14467E-4
17554.687500; 1.06361E-4
17560.546875; 9.44819E-5
17566.406250; 9.63268E-5
17572.265625; 1.00862E-4
17578.125000; 9.37204E-5
17583.984375; 9.43985E-5
17589.843750; 1.08997E-4
17595.703125; 9.95815E-5
17601.562500; 9.77452E-5
17607.421875; 9.51041E-5
17613.281250; 1.01902E-4
17619.140625; 1.01287E-4
17625.000000; 9.63387E-5
17630.859375; 9.39892E-5
17636.718750; 9.83636E-5
17642.578125; 1.11477E-4
17648.437500; 1.11724E-4
17654.296875; 1.11352E-4
17660.156250; 1.05267E-4
17666.015625; 1.03408E-4
17671.875000; 9.85794E-5
17677.734375; 9.85113E-5
17683.593750; 9.90454E-5
17689.453125; 9.30086E-5
17695.312500; 8.61310E-5
17701.171875; 9.44683E-5
17707.031250; 1.07034E-4
17712.890625; 1.02148E-4
17718.750000; 9.76336E-5
17724.609375; 9.91102E-5
17730.468750; 9.59048E-5
17736.328125; 9.19216E-5
17742.187500; 9.61256E-5
17748.046875; 9.95083E-5
17753.906250; 1.08637E-4
17759.765625; 1.00413E-4
17765.625000; 1.03990E-4
17771.484375; 1.01909E-4
17777.343750; 9.22576E-5
17783.203125; 9.93589E-5
17789.062500; 1.01611E-4
17794.921875; 9.28130E-5
17800.781250; 9.22313E-5
17806.640625; 8.94179E-5
17812.500000; 9.09865E-5
17818.359375; 8.80592E-5
17824.218750; 9.84061E-5
17830.078125; 9.28751E-5
17835.937500; 9.47634E-5
17841.796875; 9.03363E-5
17847.656250; 9.31378E-5
17853.515625; 8.98906E-5
17859.375000; 8.75866E-5
17865.234375; 8.75943E-5
17871.093750; 8.67015E-5
17876.953125; 9.50387E-5
17882.812500; 9.85449E-5
17888.671875; 9.61938E-5
17894.531250; 9.73321E-5
17900.390625; 1.00842E-4
17906.250000; 1.01784E-4
17912.109375; 1.00324E-4
17917.968750; 9.48586E-5
17923.828125; 9.95461E-5
17929.687500; 9.08901E-5
17935.546875; 9.22556E-5
17941.406250; 8.73957E-5
17947.265625; 9.55044E-5
17953.125000; 9.64993E-5
17958.984375; 9.47844E-5
17964.843750; 9.30331E-5
17970.703125; 8.57352E-5
17976.562500; 1.02595E-4
17982.421875; 9.93973E-5
17988.281250; 9.07757E-5
17994.140625; 9.47425E-5
18000.000000; 9.66186E-5
18005.859375; 9.34530E-5
18011.718750; 8.62084E-5
18017.578125; 9.96158E-5
18023.437500; 1.03880E-4
18029.296875; 1.04972E-4
18035.156250; 9.99360E-5
18041.015625; 9.39641E-5
18046.875000; 9.06927E-5
18052.734375; 8.50320E-5
18058.593750; 8.85046E-5
18064.453125; 8.65501E-5
18070.312500; 9.04138E-5
18076.171875; 9.08983E-5
18082.031250; 9.44352E-5
18087.890625; 1.02593E-4
18093.750000; 1.03463E-4
18099.609375; 9.82502E-5
18105.468750; 8.97278E-5
18111.328125; 9.38791E-5
18117.187500; 9.83257E-5
18123.046875; 9.48083E-5
18128.906250; 9.68770E-5
18134.765625; 9.08495E-5
18140.625000; 9.67732E-5
18146.484375; 1.01799E-4
18152.343750; 1.04956E-4
18158.203125; 1.14832E-4
18164.062500; 1.01852E-4
18169.921875; 9.70992E-5
18175.781250; 9.74462E-5
18181.640625; 9.93858E-5
18187.500000; 9.81917E-5
18193.359375; 1.02366E-4
18199.218750; 9.04030E-5
18205.078125; 9.14957E-5
18210.937500; 9.95878E-5
18216.796875; 1.09971E-4
18222.656250; 1.01368E-4
18228.515625; 8.67502E-5
18234.375000; 8.77607E-5
18240.234375; 9.00799E-5
18246.093750; 9.21509E-5
18251.953125; 9.30682E-5
18257.812500; 9.57535E-5
18263.671875; 9.67409E-5
18269.531250; 9.07355E-5
18275.390625; 9.95982E-5
18281.250000; 1.05200E-4
18287.109375; 1.00861E-4
18292.968750; 9.34489E-5
18298.828125; 9.41137E-5
18304.687500; 1.01114E-4
18310.546875; 9.81653E-5
18316.406250; 9.84548E-5
18322.265625; 1.02746E-4
18328.125000; 9.60325E-5
18333.984375; 8.52978E-5
18339.843750; 9.43931E-5
18345.703125; 9.30905E-5
18351.562500; 9.46912E-5
18357.421875; 8.91378E-5
18363.281250; 9.24462E-5
18369.140625; 9.25091E-5
18375.000000; 9.24434E-5
18380.859375; 1.01593E-4
18386.718750; 9.50648E-5
18392.578125; 8.88401E-5
18398.437500; 9.65946E-5
18404.296875; 9.95247E-5
18410.156250; 1.01932E-4
18416.015625; 9.88445E-5
18421.875000; 9.43732E-5
18427.734375; 1.00428E-4
18433.593750; 9.03870E-5
18439.453125; 8.77507E-5
18445.312500; 8.48799E-5
18451.171875; 8.75758E-5
18457.031250; 9.62187E-5
18462.890625; 1.09620E-4
18468.750000; 1.01306E-4
18474.609375; 1.03782E-4
18480.468750; 1.05076E-4
18486.328125; 1.00720E-4
18492.187500; 9.40955E-5
18498.046875; 1.10751E-4
18503.906250; 1.07126E-4
18509.765625; 1.03710E-4
18515.625000; 9.76858E-5
18521.484375; 9.29543E-5
18527.343750; 9.98267E-5
18533.203125; 9.50568E-5
18539.062500; 9.45380E-5
18544.921875; 9.40937E-5
18550.781250; 9.09961E-5
18556.640625; 8.75352E-5
18562.500000; 9.37543E-5
18568.359375; 1.03002E-4
18574.218750; 1.01500E-4
18580.078125; 1.01679E-4
18585.937500; 1.00599E-4
18591.796875; 9.19765E-5
18597.656250; 8.79656E-5
18603.515625; 9.66590E-5
18609.375000; 1.03592E-4
18615.234375; 1.05047E-4
18621.093750; 1.02552E-4
18626.953125; 9.55545E-5
18632.812500; 8.93680E-5
18638.671875; 8.80936E-5
18644.531250; 9.47656E-5
18650.390625; 1.06723E-4
18656.250000; 1.06713E-4
18662.109375; 1.08034E-4
18667.968750; 1.03009E-4
18673.828125; 1.01696E-4
18679.687500; 9.86796E-5
18685.546875; 9.61194E-5
18691.406250; 9.70552E-5
18697.265625; 1.05740E-4
18703.125000; 8.66996E-5
18708.984375; 9.83082E-5
18714.843750; 9.26850E-5
18720.703125; 8.70638E-5
18726.562500; 9.62924E-5
18732.421875; 1.04841E-4
18738.281250; 1.00061E-4
18744.140625; 9.11553E-5
18750.000000; 8.86119E-5
18755.859375; 9.20325E-5
18761.718750; 9.37419E-5
18767.578125; 1.04002E-4
18773.437500; 9.30253E-5
18779.296875; 1.08400E-4
18785.156250; 1.14630E-4
18791.015625; 1.03866E-4
18796.875000; 9.56095E-5
18802.734375; 9.05233E-5
18808.593750; 8.92741E-5
18814.453125; 8.82774E-5
18820.312500; 9.56759E-5
18826.171875; 9.50454E-5
18832.031250; 9.89886E-5
18837.890625; 9.51113E-5
18843.750000; 9.43152E-5
18849.609375; 9.95461E-5
18855.468750; 9.81811E-5
18861.328125; 9.13308E-5
18867.187500; 9.49805E-5
18873.046875; 1.00621E-4
18878.906250; 1.03335E-4
18884.765625; 1.12632E-4
18890.625000; 1.05961E-4
18896.484375; 8.98066E-5
18902.343750; 9.45722E-5
18908.203125; 9.69876E-5
18914.062500; 9.68059E-5
18919.921875; 9.71881E-5
18925.781250; 1.01815E-4
18931.640625; 9.58433E-5
18937.500000; 9.51439E-5
18943.359375; 1.05384E-4
18949.218750; 1.03769E-4
18955.078125; 9.63059E-5
18960.937500; 9.01133E-5
18966.796875; 1.03071E-4
18972.656250; 9.84127E-5
18978.515625; 9.37656E-5
18984.375000; 1.03254E-4
18990.234375; 1.00808E-4
18996.093750; 1.00226E-4
19001.953125; 1.12546E-4
19007.812500; 1.03601E-4
19013.671875; 9.29879E-5
19019.531250; 9.61827E-5
19025.390625; 9.27835E-5
19031.250000; 9.25211E-5
19037.109375; 9.86115E-5
19042.968750; 1.02787E-4
19048.828125; 9.62848E-5
19054.687500; 9.10732E-5
19060.546875; 1.05105E-4
19066.406250; 9.80297E-5
19072.265625; 8.44326E-5
19078.125000; 9.12470E-5
19083.984375; 9.26466E-5
19089.843750; 8.91580E-5
19095.703125; 9.45590E-5
19101.562500; 1.00658E-4
19107.421875; 9.27217E-5
19113.281250; 1.01323E-4
19119.140625; 1.02271E-4
19125.000000; 9.76544E-5
19130.859375; 9.05651E-5
19136.718750; 1.03967E-4
19142.578125; 1.02649E-4
19148.437500; 1.00730E-4
19154.296875; 1.00266E-4
19160.156250; 1.01074E-4
19166.015625; 9.57297E-5
19171.875000; 1.02175E-4
19177.734375; 1.04508E-4
19183.593750; 1.03071E-4
19189.453125; 1.07783E-4
19195.312500; 1.06811E-4
19201.171875; 1.11785E-4
19207.031250; 1.03132E-4
19212.890625; 1.04650E-4
19218.750000; 1.01505E-4
19224.609375; 1.05135E-4
19230.468750; 1.01001E-4
19236.328125; 9.89948E-5
19242.187500; 8.89458E-5
19248.046875; 9.93697E-5
19253.906250; 9.53989E-5
19259.765625; 8.92008E-5
19265.625000; 8.71460E-5
19271.484375; 8.79665E-5
19277.343750; 9.47102E-5
19283.203125; 1.03008E-4
19289.062500; 1.08457E-4
19294.921875; 9.90881E-5
19300.781250; 9.45677E-5
19306.640625; 9.30908E-5
19312.500000; 9.87995E-5
19318.359375; 1.06275E-4
19324.218750; 9.83647E-5
19330.078125; 9.29162E-5
19335.937500; 9.91354E-5
19341.796875; 1.06397E-4
19347.656250; 9.64098E-5
19353.515625; 9.86573E-5
19359.375000; 9.89825E-5
19365.234375; 9.78674E-5
19371.093750; 9.74546E-5
19376.953125; 1.05882E-4
19382.812500; 9.96392E-5
19388.671875; 9.90995E-5
19394.531250; 9.97747E-5
19400.390625; 1.07063E-4
19406.250000; 1.01327E-4
19412.109375; 9.38866E-5
19417.968750; 9.54953E-5
19423.828125; 1.01658E-4
19429.687500; 1.11451E-4
19435.546875; 1.02398E-4
19441.406250; 9.59247E-5
19447.265625; 9.78540E-5
19453.125000; 1.05612E-4
19458.984375; 1.11414E-4
19464.843750; 1.02691E-4
19470.703125; 9.49126E-5
19476.562500; 9.52042E-5
19482.421875; 9.02432E-5
19488.281250; 8.45254E-5
19494.140625; 8.15644E-5
19500.000000; 9.04244E-5
19505.859375; 9.94489E-5
19511.718750; 9.46940E-5
19517.578125; 9.46386E-5
19523.437500; 9.86342E-5
19529.296875; 9.14403E-5
19535.156250; 8.89006E-5
19541.015625; 9.13369E-5
19546.875000; 1.04621E-4
19552.734375; 9.32664E-5
19558.593750; 9.35205E-5
19564.453125; 9.79157E-5
19570.312500; 1.03770E-4
19576.171875; 9.52943E-5
19582.031250; 1.03953E-4
19587.890625; 1.05589E-4
19593.750000; 9.25716E-5
19599.609375; 9.96526E-5
19605.468750; 9.96786E-5
19611.328125; 1.12019E-4
19617.187500; 1.12461E-4
19623.046875; 9.80710E-5
19628.906250; 1.00596E-4
19634.765625; 9.19328E-5
19640.625000; 8.67633E-5
19646.484375; 9.14080E-5
19652.343750; 9.41019E-5
19658.203125; 9.63435E-5
19664.062500; 1.04902E-4
19669.921875; 1.06035E-4
19675.781250; 9.52371E-5
19681.640625; 9.38431E-5
19687.500000; 1.02421E-4
19693.359375; 1.09657E-4
19699.218750; 1.01362E-4
19705.078125; 1.03479E-4
19710.937500; 9.85604E-5
19716.796875; 9.67004E-5
19722.656250; 9.36907E-5
19728.515625; 9.62970E-5
19734.375000; 9.19805E-5
19740.234375; 9.42112E-5
19746.093750; 8.29443E-5
19751.953125; 9.63595E-5
19757.812500; 9.35688E-5
19763.671875; 9.27738E-5
19769.531250; 1.02265E-4
19775.390625; 1.03897E-4
19781.250000; 9.65645E-5
19787.109375; 9.48580E-5
19792.968750; 9.75786E-5
19798.828125; 9.79740E-5
19804.687500; 9.44238E-5
19810.546875; 9.84345E-5
19816.406250; 9.51672E-5
19822.265625; 1.02356E-4
19828.125000; 9.74456E-5
19833.984375; 9.78405E-5
19839.843750; 1.03534E-4
19845.703125; 9.90060E-5
19851.562500; 1.01438E-4
19857.421875; 1.00911E-4
19863.281250; 9.45002E-5
19869.140625; 9.35157E-5
19875.000000; 9.47031E-5
19880.859375; 9.55929E-5
19886.718750; 1.01824E-4
19892.578125; 9.96776E-5
19898.437500; 9.70916E-5
19904.296875; 9.69730E-5
19910.156250; 8.90841E-5
19916.015625; 8.90332E-5
19921.875000; 9.26331E-5
19927.734375; 9.14986E-5
19933.593750; 9.10874E-5
19939.453125; 9.75320E-5
19945.312500; 1.03367E-4
19951.171875; 9.97557E-5
19957.031250; 9.82470E-5
19962.890625; 9.47392E-5
19968.750000; 9.06204E-5
19974.609375; 9.02368E-5
19980.468750; 9.94567E-5
19986.328125; 9.66765E-5
19992.187500; 1.01631E-4
19998.046875; 9.39278E-5
20003.906250; 9.76167E-5
20009.765625; 1.01466E-4
20015.625000; 9.93942E-5
20021.484375; 9.72677E-5
20027.343750; 1.04733E-4
20033.203125; 9.49525E-5
20039.062500; 9.35070E-5
20044.921875; 9.33007E-5
20050.781250; 9.13449E-5
20056.640625; 9.38124E-5
20062.500000; 9.28845E-5
20068.359375; 9.45568E-5
20074.218750; 9.98517E-5
20080.078125; 1.01326E-4
20085.937500; 9.33155E-5
20091.796875; 9.14791E-5
20097.656250; 9.90024E-5
20103.515625; 9.73567E-5
20109.375000; 1.00679E-4
20115.234375; 1.04925E-4
20121.093750; 1.11162E-4
20126.953125; 1.06756E-4
20132.812500; 9.82142E-5
20138.671875; 9.73781E-5
20144.531250; 9.42912E-5
20150.390625; 9.13743E-5
20156.250000; 9.78011E-5
20162.109375; 1.00909E-4
20167.968750; 8.64250E-5
20173.828125; 9.22654E-5
20179.687500; 9.96751E-5
20185.546875; 1.02044E-4
20191.406250; 1.06967E-4
20197.265625; 1.02958E-4
20203.125000; 1.03370E-4
20208.984375; 9.64066E-5
20214.843750; 9.17411E-5
20220.703125; 1.01476E-4
20226.562500; 9.82478E-5
20232.421875; 9.78887E-5
20238.281250; 1.01594E-4
20244.140625; 9.67153E-5
20250.000000; 1.08005E-4
20255.859375; 1.06658E-4
20261.718750; 9.87718E-5
20267.578125; 9.43851E-5
20273.437500; 9.59696E-5
20279.296875; 9.32335E-5
20285.156250; 9.53389E-5
20291.015625; 9.66775E-5
20296.875000; 9.08245E-5
20302.734375; 1.01660E-4
20308.593750; 1.03514E-4
20314.453125; 9.20580E-5
20320.312500; 9.55921E-5
20326.171875; 1.02928E-4
20332.031250; 9.69316E-5
20337.890625; 9.82659E-5
20343.750000; 9.46079E-5
20349.609375; 1.02663E-4
20355.468750; 9.59426E-5
20361.328125; 9.65511E-5
20367.187500; 9.47004E-5
20373.046875; 9.13071E-5
20378.906250; 9.49709E-5
20384.765625; 9.13409E-5
20390.625000; 9.90676E-5
20396.484375; 1.01566E-4
20402.343750; 9.65520E-5
20408.203125; 8.89441E-5
20414.062500; 8.57874E-5
20419.921875; 8.54473E-5
20425.781250; 9.25716E-5
20431.640625; 9.90914E-5
20437.500000; 8.97140E-5
20443.359375; 9.55322E-5
20449.218750; 1.01221E-4
20455.078125; 1.02783E-4
20460.937500; 9.73754E-5
20466.796875; 9.68134E-5
20472.656250; 1.00385E-4
20478.515625; 9.80983E-5
20484.375000; 9.11333E-5
20490.234375; 1.01353E-4
20496.093750; 1.07546E-4
20501.953125; 1.04714E-4
20507.812500; 9.41768E-5
20513.671875; 9.40005E-5
20519.531250; 9.27924E-5
20525.390625; 8.84911E-5
20531.250000; 9.90793E-5
20537.109375; 1.07884E-4
20542.968750; 1.00691E-4
20548.828125; 9.63439E-5
20554.687500; 1.02657E-4
20560.546875; 1.00972E-4
20566.406250; 8.89381E-5
20572.265625; 8.19191E-5
20578.125000; 9.58986E-5
20583.984375; 9.34500E-5
20589.843750; 9.47109E-5
20595.703125; 9.68117E-5
20601.562500; 9.38481E-5
20607.421875; 9.53057E-5
20613.281250; 9.87870E-5
20619.140625; 9.10217E-5
20625.000000; 9.16785E-5
20630.859375; 8.41816E-5
20636.718750; 9.14213E-5
20642.578125; 9.60773E-5
20648.437500; 8.86378E-5
20654.296875; 1.01382E-4
20660.156250; 1.00017E-4
20666.015625; 9.73413E-5
20671.875000; 1.00539E-4
20677.734375; 8.79144E-5
20683.593750; 9.03100E-5
20689.453125; 9.62229E-5
20695.312500; 9.34325E-5
20701.171875; 9.56189E-5
20707.031250; 9.70439E-5
20712.890625; 9.04646E-5
20718.750000; 1.03408E-4
20724.609375; 9.71934E-5
20730.468750; 9.65952E-5
20736.328125; 9.90081E-5
20742.187500; 9.84290E-5
20748.046875; 8.96282E-5
20753.906250; 8.91229E-5
20759.765625; 9.85674E-5
20765.625000; 1.07103E-4
20771.484375; 1.04576E-4
20777.343750; 9.55284E-5
20783.203125; 9.00033E-5
20789.062500; 9.33059E-5
20794.921875; 1.02362E-4
20800.781250; 1.01373E-4
20806.640625; 9.64443E-5
20812.500000; 9.51106E-5
20818.359375; 8.93353E-5
20824.218750; 9.29557E-5
20830.078125; 1.00139E-4
20835.937500; 8.45259E-5
20841.796875; 8.03180E-5
20847.656250; 9.67929E-5
20853.515625; 9.66365E-5
20859.375000; 9.41471E-5
20865.234375; 8.96864E-5
20871.093750; 9.67004E-5
20876.953125; 9.09601E-5
20882.812500; 9.27520E-5
20888.671875; 9.08786E-5
20894.531250; 9.88655E-5
20900.390625; 1.05291E-4
20906.250000; 9.49308E-5
20912.109375; 1.06054E-4
20917.968750; 1.11092E-4
20923.828125; 9.72578E-5
20929.687500; 8.72462E-5
20935.546875; 8.61394E-5
20941.406250; 9.11428E-5
20947.265625; 9.41828E-5
20953.125000; 9.49104E-5
20958.984375; 9.22933E-5
20964.843750; 9.28785E-5
20970.703125; 1.00091E-4
20976.562500; 8.92068E-5
20982.421875; 8.79804E-5
20988.281250; 9.68749E-5
20994.140625; 1.03043E-4
21000.000000; 9.62290E-5
21005.859375; 9.85443E-5
21011.718750; 9.51309E-5
21017.578125; 9.71456E-5
21023.437500; 9.48311E-5
21029.296875; 9.28965E-5
21035.156250; 9.33622E-5
21041.015625; 9.49898E-5
21046.875000; 9.47406E-5
21052.734375; 9.94453E-5
21058.593750; 8.98522E-5
21064.453125; 9.29017E-5
21070.312500; 8.49991E-5
21076.171875; 7.89769E-5
21082.031250; 8.90756E-5
21087.890625; 9.52571E-5
21093.750000; 9.61243E-5
21099.609375; 9.92889E-5
21105.468750; 9.27451E-5
21111.328125; 8.69695E-5
21117.187500; 1.05711E-4
21123.046875; 1.04607E-4
21128.906250; 9.07062E-5
21134.765625; 9.42425E-5
21140.625000; 9.90371E-5
21146.484375; 1.05981E-4
21152.343750; 9.12864E-5
21158.203125; 9.01170E-5
21164.062500; 9.46971E-5
21169.921875; 9.61739E-5
21175.781250; 1.05421E-4
21181.640625; 9.88221E-5
21187.500000; 9.54987E-5
21193.359375; 9.85760E-5
21199.218750; 8.35650E-5
21205.078125; 9.01974E-5
21210.937500; 9.73903E-5
21216.796875; 8.90904E-5
21222.656250; 9.61375E-5
21228.515625; 9.02900E-5
21234.375000; 7.92799E-5
21240.234375; 9.41329E-5
21246.093750; 1.09427E-4
21251.953125; 9.91365E-5
21257.812500; 9.57290E-5
21263.671875; 1.00944E-4
21269.531250; 1.00618E-4
21275.390625; 9.48905E-5
21281.250000; 9.60668E-5
21287.109375; 9.87069E-5
21292.968750; 9.30749E-5
21298.828125; 9.57432E-5
21304.687500; 1.01676E-4
21310.546875; 1.00467E-4
21316.406250; 9.85470E-5
21322.265625; 1.00223E-4
21328.125000; 9.41406E-5
21333.984375; 9.15956E-5
21339.843750; 9.34656E-5
21345.703125; 9.38393E-5
21351.562500; 9.81432E-5
21357.421875; 9.53739E-5
21363.281250; 9.48468E-5
21369.140625; 9.53676E-5
21375.000000; 9.91156E-5
21380.859375; 8.98358E-5
21386.718750; 8.92370E-5
21392.578125; 8.80776E-5
21398.437500; 9.43612E-5
21404.296875; 9.22073E-5
21410.156250; 9.86271E-5
21416.015625; 9.34099E-5
21421.875000; 9.58072E-5
21427.734375; 9.64846E-5
21433.593750; 8.46921E-5
21439.453125; 8.97708E-5
21445.312500; 9.27407E-5
21451.171875; 8.99202E-5
21457.031250; 9.57508E-5
21462.890625; 9.48326E-5
21468.750000; 9.19111E-5
21474.609375; 9.07346E-5
21480.468750; 8.95306E-5
21486.328125; 9.07341E-5
21492.187500; 1.02085E-4
21498.046875; 1.00299E-4
21503.906250; 9.09579E-5
21509.765625; 8.65625E-5
21515.625000; 9.28720E-5
21521.484375; 9.38699E-5
21527.343750; 1.00026E-4
21533.203125; 9.80486E-5
21539.062500; 9.44595E-5
21544.921875; 8.93975E-5
21550.781250; 9.60396E-5
21556.640625; 1.01865E-4
21562.500000; 8.85748E-5
21568.359375; 9.01311E-5
21574.218750; 9.63466E-5
21580.078125; 9.76177E-5
21585.937500; 9.47198E-5
21591.796875; 9.50627E-5
21597.656250; 1.02028E-4
21603.515625; 1.04632E-4
21609.375000; 1.01552E-4
21615.234375; 1.02465E-4
21621.093750; 9.53790E-5
21626.953125; 1.01704E-4
21632.812500; 9.35267E-5
21638.671875; 9.09813E-5
21644.531250; 9.14012E-5
21650.390625; 9.59583E-5
21656.250000; 9.90495E-5
21662.109375; 1.00402E-4
21667.968750; 9.26181E-5
21673.828125; 1.05119E-4
21679.687500; 9.95658E-5
21685.546875; 9.96278E-5
21691.406250; 1.01375E-4
21697.265625; 8.79646E-5
21703.125000; 9.06979E-5
21708.984375; 9.31231E-5
21714.843750; 9.34220E-5
21720.703125; 8.81239E-5
21726.562500; 9.46396E-5
21732.421875; 1.09614E-4
21738.281250; 1.01427E-4
21744.140625; 9.20791E-5
21750.000000; 8.85803E-5
21755.859375; 8.95105E-5
21761.718750; 9.11887E-5
21767.578125; 9.32434E-5
21773.437500; 1.00156E-4
21779.296875; 9.30358E-5
21785.156250; 9.60530E-5
21791.015625; 8.84152E-5
21796.875000; 9.35885E-5
21802.734375; 9.47661E-5
21808.593750; 9.44899E-5
21814.453125; 1.03992E-4
21820.312500; 1.01047E-4
21826.171875; 1.02891E-4
21832.031250; 9.77694E-5
21837.890625; 8.71058E-5
21843.750000; 9.07237E-5
21849.609375; 1.00664E-4
21855.468750; 8.77361E-5
21861.328125; 8.42306E-5
21867.187500; 9.25034E-5
21873.046875; 9.76559E-5
21878.906250; 9.56084E-5
21884.765625; 9.83361E-5
21890.625000; 9.58458E-5
21896.484375; 9.38054E-5
21902.343750; 8.98430E-5
21908.203125; 8.98984E-5
21914.062500; 8.95559E-5
21919.921875; 1.00878E-4
21925.781250; 9.96396E-5
21931.640625; 9.45035E-5
21937.500000; 9.16722E-5
21943.359375; 9.02952E-5
21949.218750; 1.02981E-4
21955.078125; 9.41108E-5
21960.937500; 8.91456E-5
21966.796875; 9.68037E-5
21972.656250; 9.73051E-5
21978.515625; 9.12727E-5
21984.375000; 1.02647E-4
21990.234375; 1.00834E-4
21996.093750; 9.02602E-5
22001.953125; 9.64294E-5
22007.812500; 9.76464E-5
22013.671875; 8.91624E-5
22019.531250; 9.77968E-5
22025.390625; 1.00508E-4
22031.250000; 9.35921E-5
22037.109375; 9.36007E-5
22042.968750; 9.63880E-5
22048.828125; 9.12418E-5
22054.687500; 9.34710E-5
22060.546875; 9.26764E-5
22066.406250; 9.63068E-5
22072.265625; 9.34881E-5
22078.125000; 1.00688E-4
22083.984375; 9.53032E-5
22089.843750; 1.01419E-4
22095.703125; 1.04730E-4
22101.562500; 9.91459E-5
22107.421875; 9.55183E-5
22113.281250; 9.63402E-5
22119.140625; 1.02026E-4
22125.000000; 9.50227E-5
22130.859375; 8.71308E-5
22136.718750; 8.57758E-5
22142.578125; 9.10930E-5
22148.437500; 9.16100E-5
22154.296875; 8.49719E-5
22160.156250; 9.60436E-5
22166.015625; 8.88033E-5
22171.875000; 9.24531E-5
22177.734375; 9.66681E-5
22183.593750; 9.22518E-5
22189.453125; 8.87087E-5
22195.312500; 8.40577E-5
22201.171875; 8.74867E-5
22207.031250; 9.60190E-5
22212.890625; 9.14865E-5
22218.750000; 8.99978E-5
22224.609375; 8.43407E-5
22230.468750; 1.00629E-4
22236.328125; 1.01337E-4
22242.187500; 9.63618E-5
22248.046875; 9.04889E-5
22253.906250; 8.77923E-5
22259.765625; 8.06604E-5
22265.625000; 9.89645E-5
22271.484375; 9.37547E-5
22277.343750; 8.76949E-5
22283.203125; 9.61664E-5
22289.062500; 9.28303E-5
22294.921875; 8.76741E-5
22300.781250; 9.35622E-5
22306.640625; 8.92967E-5
22312.500000; 9.99732E-5
22318.359375; 1.10858E-4
22324.218750; 1.10368E-4
22330.078125; 9.46008E-5
22335.937500; 8.72851E-5
22341.796875; 8.71671E-5
22347.656250; 9.09638E-5
22353.515625; 9.00678E-5
22359.375000; 8.74059E-5
22365.234375; 9.34883E-5
22371.093750; 9.83226E-5
22376.953125; 8.65084E-5
22382.812500; 8.94367E-5
22388.671875; 9.26356E-5
22394.531250; 9.35042E-5
22400.390625; 1.02879E-4
22406.250000; 1.06440E-4
22412.109375; 9.29752E-5
22417.968750; 8.90247E-5
22423.828125; 9.28447E-5
22429.687500; 9.01069E-5
22435.546875; 8.97181E-5
22441.406250; 8.01597E-5
22447.265625; 8.54675E-5
22453.125000; 8.55445E-5
22458.984375; 9.03063E-5
22464.843750; 9.30512E-5
22470.703125; 9.90285E-5
22476.562500; 8.75678E-5
22482.421875; 9.15600E-5
22488.281250; 9.71447E-5
22494.140625; 9.61326E-5
22500.000000; 8.39616E-5
22505.859375; 9.47382E-5
22511.718750; 9.69301E-5
22517.578125; 8.58246E-5
22523.437500; 8.97682E-5
22529.296875; 9.14347E-5
22535.156250; 9.51336E-5
22541.015625; 8.76452E-5
22546.875000; 8.47407E-5
22552.734375; 9.04661E-5
22558.593750; 8.97061E-5
22564.453125; 8.88124E-5
22570.312500; 8.49454E-5
22576.171875; 8.27393E-5
22582.031250; 8.20206E-5
22587.890625; 8.63737E-5
22593.750000; 9.15245E-5
22599.609375; 9.27383E-5
22605.468750; 8.38228E-5
22611.328125; 8.30171E-5
22617.187500; 8.54567E-5
22623.046875; 7.90196E-5
22628.906250; 8.02838E-5
22634.765625; 8.38751E-5
22640.625000; 8.85015E-5
22646.484375; 8.25314E-5
22652.343750; 8.78031E-5
22658.203125; 8.45188E-5
22664.062500; 8.82121E-5
22669.921875; 8.61431E-5
22675.781250; 8.19498E-5
22681.640625; 8.68794E-5
22687.500000; 8.51023E-5
22693.359375; 8.96834E-5
22699.218750; 8.97273E-5
22705.078125; 8.12179E-5
22710.937500; 7.49517E-5
22716.796875; 8.49725E-5
22722.656250; 9.01284E-5
22728.515625; 8.79299E-5
22734.375000; 8.26348E-5
22740.234375; 8.55088E-5
22746.093750; 7.65544E-5
22751.953125; 8.18688E-5
22757.812500; 8.51553E-5
22763.671875; 9.13306E-5
22769.531250; 8.93209E-5
22775.390625; 8.14501E-5
22781.250000; 8.52931E-5
22787.109375; 8.90758E-5
22792.968750; 8.55375E-5
22798.828125; 8.10004E-5
22804.687500; 8.18050E-5
22810.546875; 8.18289E-5
22816.406250; 8.45363E-5
22822.265625; 8.29313E-5
22828.125000; 8.49348E-5
22833.984375; 8.31947E-5
22839.843750; 7.87793E-5
22845.703125; 7.56481E-5
22851.562500; 8.38513E-5
22857.421875; 8.41015E-5
22863.281250; 7.90497E-5
22869.140625; 7.61308E-5
22875.000000; 7.38273E-5
22880.859375; 7.67126E-5
22886.718750; 7.55389E-5
22892.578125; 7.52061E-5
22898.437500; 8.05362E-5
22904.296875; 7.93653E-5
22910.156250; 7.86341E-5
22916.015625; 7.43005E-5
22921.875000; 7.60876E-5
22927.734375; 7.47529E-5
22933.593750; 7.67456E-5
22939.453125; 7.14539E-5
22945.312500; 6.72225E-5
22951.171875; 6.76217E-5
22957.031250; 7.58531E-5
22962.890625; 8.05131E-5
22968.750000; 7.74715E-5
22974.609375; 8.36953E-5
22980.468750; 7.80603E-5
22986.328125; 6.63910E-5
22992.187500; 6.59054E-5
22998.046875; 6.67835E-5
23003.906250; 6.55904E-5
23009.765625; 7.04219E-5
23015.625000; 7.09899E-5
23021.484375; 7.43976E-5
23027.343750; 7.15530E-5
23033.203125; 6.57402E-5
23039.062500; 6.95951E-5
23044.921875; 7.75150E-5
23050.781250; 7.84867E-5
23056.640625; 6.73445E-5
23062.500000; 6.85242E-5
23068.359375; 7.27374E-5
23074.218750; 8.01378E-5
23080.078125; 7.76851E-5
23085.937500; 6.60931E-5
23091.796875; 6.41690E-5
23097.656250; 6.88076E-5
23103.515625; 7.05620E-5
23109.375000; 6.75115E-5
23115.234375; 6.84802E-5
23121.093750; 6.98232E-5
23126.953125; 7.32924E-5
23132.812500; 7.16120E-5
23138.671875; 6.34906E-5
23144.531250; 6.18776E-5
23150.390625; 6.64392E-5
23156.250000; 6.57475E-5
23162.109375; 6.36003E-5
23167.968750; 6.67045E-5
23173.828125; 6.15630E-5
23179.687500; 6.30965E-5
23185.546875; 6.16996E-5
23191.406250; 5.95991E-5
23197.265625; 6.43426E-5
23203.125000; 6.91235E-5
23208.984375; 7.07735E-5
23214.843750; 6.86237E-5
23220.703125; 6.76761E-5
23226.562500; 5.53440E-5
23232.421875; 5.31838E-5
23238.281250; 5.75350E-5
23244.140625; 6.50732E-5
23250.000000; 6.52210E-5
23255.859375; 6.07450E-5
23261.718750; 6.15651E-5
23267.578125; 6.12484E-5
23273.437500; 6.61673E-5
23279.296875; 6.70112E-5
23285.156250; 6.06869E-5
23291.015625; 5.47516E-5
23296.875000; 5.80097E-5
23302.734375; 5.50183E-5
23308.593750; 5.02733E-5
23314.453125; 5.20711E-5
23320.312500; 5.55805E-5
23326.171875; 5.66760E-5
23332.031250; 5.56870E-5
23337.890625; 5.82589E-5
23343.750000; 5.94111E-5
23349.609375; 5.76622E-5
23355.468750; 5.27450E-5
23361.328125; 5.30691E-5
23367.187500; 6.39825E-5
23373.046875; 5.77656E-5
23378.906250; 5.20902E-5
23384.765625; 5.09203E-5
23390.625000; 5.33920E-5
23396.484375; 5.12242E-5
23402.343750; 5.30481E-5
23408.203125; 5.41238E-5
23414.062500; 5.62800E-5
23419.921875; 5.39337E-5
23425.781250; 4.91691E-5
23431.640625; 5.12941E-5
23437.500000; 5.15304E-5
23443.359375; 4.70849E-5
23449.218750; 4.82270E-5
23455.078125; 4.92822E-5
23460.937500; 5.08507E-5
23466.796875; 4.94044E-5
23472.656250; 4.95935E-5
23478.515625; 4.69276E-5
23484.375000; 4.78541E-5
23490.234375; 4.84167E-5
23496.093750; 4.86701E-5
23501.953125; 4.87371E-5
23507.812500; 4.64332E-5
23513.671875; 4.51823E-5
23519.531250; 4.72113E-5
23525.390625; 4.99196E-5
23531.250000; 4.86602E-5
23537.109375; 4.68200E-5
23542.968750; 4.48551E-5
23548.828125; 4.55739E-5
23554.687500; 4.20529E-5
23560.546875; 4.53359E-5
23566.406250; 4.60754E-5
23572.265625; 4.32545E-5
23578.125000; 3.94849E-5
23583.984375; 3.67715E-5
23589.843750; 3.89079E-5
23595.703125; 3.97201E-5
23601.562500; 4.05430E-5
23607.421875; 4.44493E-5
23613.281250; 4.22805E-5
23619.140625; 3.85756E-5
23625.000000; 4.34779E-5
23630.859375; 4.55067E-5
23636.718750; 4.33862E-5
23642.578125; 4.10504E-5
23648.437500; 3.59552E-5
23654.296875; 3.97006E-5
23660.156250; 3.83170E-5
23666.015625; 3.89289E-5
23671.875000; 4.09545E-5
23677.734375; 4.04533E-5
23683.593750; 4.25022E-5
23689.453125; 3.89730E-5
23695.312500; 3.71593E-5
23701.171875; 4.13224E-5
23707.031250; 4.08978E-5
23712.890625; 3.96097E-5
23718.750000; 3.89008E-5
23724.609375; 4.18868E-5
23730.468750; 4.34186E-5
23736.328125; 3.83774E-5
23742.187500; 3.72892E-5
23748.046875; 3.30324E-5
23753.906250; 3.70120E-5
23759.765625; 3.83171E-5
23765.625000; 3.91399E-5
23771.484375; 3.79021E-5
23777.343750; 3.53355E-5
23783.203125; 3.24478E-5
23789.062500; 3.51788E-5
23794.921875; 3.77888E-5
23800.781250; 3.69361E-5
23806.640625; 3.32215E-5
23812.500000; 3.30187E-5
23818.359375; 3.63826E-5
23824.218750; 3.92698E-5
23830.078125; 3.78120E-5
23835.937500; 3.34019E-5
23841.796875; 3.32846E-5
23847.656250; 3.35233E-5
23853.515625; 3.41847E-5
23859.375000; 3.63103E-5
23865.234375; 3.76885E-5
23871.093750; 3.63581E-5
23876.953125; 3.43466E-5
23882.812500; 3.43185E-5
23888.671875; 3.26086E-5
23894.531250; 3.42582E-5
23900.390625; 3.49541E-5
23906.250000; 3.39925E-5
23912.109375; 3.48605E-5
23917.968750; 3.37223E-5
23923.828125; 3.43023E-5
23929.687500; 3.56781E-5
23935.546875; 3.54882E-5
23941.406250; 3.53233E-5
23947.265625; 3.37046E-5
23953.125000; 3.52405E-5
23958.984375; 3.70449E-5
23964.843750; 3.58772E-5
23970.703125; 3.22204E-5
23976.562500; 3.18995E-5
23982.421875; 3.21465E-5
23988.281250; 3.20069E-5
23994.140625; 3.16930E-5
