* Measurement data measured by REW V5.31.3
* Source: PCM: default, no input selected, 2, volume: no control
* Format: 8192-point spectrum using Hann window and exponential averaging 0.97 
* Dated: Mar 9, 2025 12:58:23 PM
* REW Settings:
*  C-weighting compensation: Off
*  Target level: 75.0 dB
* Note: OSDEHA ANODE-OUTPUT; 8192-point spectrum using Hann window and exponential averaging 0.97  Input RMS 4.214 V 4.214 VC, 4.214 VA 4.214 V 22 - 22k UNW 877.8 uV >22k Distortion at 1,000.0 Hz, -27.51 dBFS: Gain: 29.34 dB THD: 0.011 % based on 21 harmonics  [0..22800 Hz] HHD: 0.0086 %  [10 .. 22] N: 0.30 %  [0..22800 Hz] N+D: 4.150 mV A THD+N: 0.30 %  [0..22800 Hz] SNR: 50.5 dB ENOB: 13.2 bits 2nd harmonic 0.0032 % -133 deg 3rd harmonic 0.0025 % 162 deg 4th harmonic 0.0024 % -151 deg 5th harmonic 0.0024 % 6 deg 6th harmonic 0.0025 % 11 deg 7th harmonic 0.0025 % 125 deg 8th harmonic 0.0024 % 73 deg 9th harmonic 0.0023 % 127 deg 
* Measurement: OSDEHA 4.21V
* Smoothing: None
* Frequency Step: 5.859375 Hz
* Start Frequency: 5.859375 Hz
*
* Freq(Hz); V(V)
5.859375; 2.84577E-4
11.718750; 2.74795E-4
17.578125; 2.14781E-4
23.437500; 1.73993E-4
29.296875; 1.51045E-4
35.156250; 1.51527E-4
41.015625; 1.50204E-4
46.875000; 3.70254E-4
52.734375; 3.93203E-4
58.593750; 1.64352E-4
64.453125; 1.32447E-4
70.312500; 1.35607E-4
76.171875; 1.33220E-4
82.031250; 1.33872E-4
87.890625; 1.59751E-4
93.750000; 5.03475E-3
99.609375; 1.12498E-2
105.468750; 6.25279E-3
111.328125; 1.85620E-4
117.187500; 1.34039E-4
123.046875; 1.11689E-4
128.906250; 1.19693E-4
134.765625; 1.17696E-4
140.625000; 1.22226E-4
146.484375; 1.49193E-4
152.343750; 1.60319E-4
158.203125; 1.18989E-4
164.062500; 1.24858E-4
169.921875; 1.25582E-4
175.781250; 1.23314E-4
181.640625; 1.29380E-4
187.500000; 1.21496E-4
193.359375; 6.14617E-4
199.218750; 1.51626E-3
205.078125; 9.52580E-4
210.937500; 1.32845E-4
216.796875; 1.14674E-4
222.656250; 1.13488E-4
228.515625; 1.14250E-4
234.375000; 1.09229E-4
240.234375; 1.19580E-4
246.093750; 1.47020E-4
251.953125; 1.70813E-4
257.812500; 1.21951E-4
263.671875; 1.25801E-4
269.531250; 1.14284E-4
275.390625; 1.15278E-4
281.250000; 1.10327E-4
287.109375; 1.20162E-4
292.968750; 1.37399E-4
298.828125; 2.26678E-4
304.687500; 1.85691E-4
310.546875; 1.20088E-4
316.406250; 1.05824E-4
322.265625; 1.08618E-4
328.125000; 1.13871E-4
333.984375; 1.10087E-4
339.843750; 1.14285E-4
345.703125; 1.41766E-4
351.562500; 1.62601E-4
357.421875; 1.27829E-4
363.281250; 1.13923E-4
369.140625; 1.06687E-4
375.000000; 1.04097E-4
380.859375; 1.09292E-4
386.718750; 1.16965E-4
392.578125; 1.68073E-4
398.437500; 4.35545E-4
404.296875; 3.35576E-4
410.156250; 1.08369E-4
416.015625; 1.09753E-4
421.875000; 1.27877E-4
427.734375; 1.02825E-4
433.593750; 1.08462E-4
439.453125; 1.14937E-4
445.312500; 1.20713E-4
451.171875; 1.30173E-4
457.031250; 1.13725E-4
462.890625; 1.10442E-4
468.750000; 1.15331E-4
474.609375; 1.12646E-4
480.468750; 1.00362E-4
486.328125; 1.01990E-4
492.187500; 1.39188E-4
498.046875; 3.01835E-4
503.906250; 2.54290E-4
509.765625; 1.24180E-4
515.625000; 1.05626E-4
521.484375; 1.15875E-4
527.343750; 1.33013E-4
533.203125; 1.14379E-4
539.062500; 1.05194E-4
544.921875; 1.09985E-4
550.781250; 1.16252E-4
556.640625; 1.16087E-4
562.500000; 1.10833E-4
568.359375; 1.11880E-4
574.218750; 1.17406E-4
580.078125; 1.12489E-4
585.937500; 1.04071E-4
591.796875; 1.04910E-4
597.656250; 1.16517E-4
603.515625; 1.25579E-4
609.375000; 1.08423E-4
615.234375; 1.05707E-4
621.093750; 1.13063E-4
626.953125; 1.16090E-4
632.812500; 1.10467E-4
638.671875; 1.08949E-4
644.531250; 1.16511E-4
650.390625; 1.14648E-4
656.250000; 9.80251E-5
662.109375; 1.06189E-4
667.968750; 9.72521E-5
673.828125; 9.92899E-5
679.687500; 1.08542E-4
685.546875; 1.16376E-4
691.406250; 1.15221E-4
697.265625; 1.87222E-4
703.125000; 1.90137E-4
708.984375; 1.07219E-4
714.843750; 9.61819E-5
720.703125; 1.09603E-4
726.562500; 1.09612E-4
732.421875; 1.10972E-4
738.281250; 1.07313E-4
744.140625; 1.15734E-4
750.000000; 1.45898E-4
755.859375; 1.23580E-4
761.718750; 1.13333E-4
767.578125; 1.03789E-4
773.437500; 1.00428E-4
779.296875; 9.98940E-5
785.156250; 1.09713E-4
791.015625; 1.09795E-4
796.875000; 1.30603E-4
802.734375; 1.43790E-4
808.593750; 9.58222E-5
814.453125; 1.16275E-4
820.312500; 1.20334E-4
826.171875; 1.29048E-4
832.031250; 1.30626E-4
837.890625; 1.28380E-4
843.750000; 1.28384E-4
849.609375; 1.38318E-4
855.468750; 1.53065E-4
861.328125; 1.29524E-4
867.187500; 1.51713E-4
873.046875; 1.51020E-4
878.906250; 1.69402E-4
884.765625; 1.80508E-4
890.625000; 2.10138E-4
896.484375; 2.41375E-4
902.343750; 2.87736E-4
908.203125; 3.22093E-4
914.062500; 3.84534E-4
919.921875; 4.69539E-4
925.781250; 5.91901E-4
931.640625; 7.36258E-4
937.500000; 9.67316E-4
943.359375; 1.30924E-3
949.218750; 1.82047E-3
955.078125; 2.60446E-3
960.937500; 4.03016E-3
966.796875; 6.58463E-3
972.656250; 1.19892E-2
978.515625; 2.54486E-2
984.375000; 7.12950E-2
990.234375; 3.92065E-1
996.093750; 3.13658E0
1001.953125; 3.92072E0
1007.812500; 1.12020E0
1013.671875; 1.12037E-1
1019.531250; 3.44562E-2
1025.390625; 1.50716E-2
1031.250000; 7.95220E-3
1037.109375; 4.68444E-3
1042.968750; 3.00994E-3
1048.828125; 2.02232E-3
1054.687500; 1.46710E-3
1060.546875; 1.05930E-3
1066.406250; 8.10930E-4
1072.265625; 6.37261E-4
1078.125000; 5.02692E-4
1083.984375; 3.99289E-4
1089.843750; 3.56658E-4
1095.703125; 2.75473E-4
1101.562500; 2.71049E-4
1107.421875; 2.19928E-4
1113.281250; 2.00788E-4
1119.140625; 1.71489E-4
1125.000000; 1.61135E-4
1130.859375; 1.57860E-4
1136.718750; 1.37926E-4
1142.578125; 1.48617E-4
1148.437500; 1.51639E-4
1154.296875; 1.30997E-4
1160.156250; 1.20034E-4
1166.015625; 1.06922E-4
1171.875000; 1.18542E-4
1177.734375; 1.24546E-4
1183.593750; 1.19089E-4
1189.453125; 1.11482E-4
1195.312500; 9.98369E-5
1201.171875; 1.11200E-4
1207.031250; 1.16573E-4
1212.890625; 9.37625E-5
1218.750000; 1.04940E-4
1224.609375; 1.14808E-4
1230.468750; 9.78779E-5
1236.328125; 1.00444E-4
1242.187500; 9.17951E-5
1248.046875; 1.03417E-4
1253.906250; 1.08676E-4
1259.765625; 1.04267E-4
1265.625000; 1.11948E-4
1271.484375; 1.07059E-4
1277.343750; 1.06306E-4
1283.203125; 1.02531E-4
1289.062500; 1.04354E-4
1294.921875; 1.01854E-4
1300.781250; 1.17328E-4
1306.640625; 1.13684E-4
1312.500000; 1.15288E-4
1318.359375; 1.06810E-4
1324.218750; 1.00632E-4
1330.078125; 1.05634E-4
1335.937500; 1.02040E-4
1341.796875; 1.07634E-4
1347.656250; 1.11622E-4
1353.515625; 1.11109E-4
1359.375000; 1.10308E-4
1365.234375; 1.05455E-4
1371.093750; 9.82630E-5
1376.953125; 1.08407E-4
1382.812500; 1.08788E-4
1388.671875; 1.01629E-4
1394.531250; 1.03517E-4
1400.390625; 1.21639E-4
1406.250000; 1.03808E-4
1412.109375; 1.04685E-4
1417.968750; 9.78840E-5
1423.828125; 9.58467E-5
1429.687500; 1.02865E-4
1435.546875; 1.04712E-4
1441.406250; 9.18409E-5
1447.265625; 1.05246E-4
1453.125000; 1.14965E-4
1458.984375; 1.01101E-4
1464.843750; 1.07816E-4
1470.703125; 1.10694E-4
1476.562500; 1.12601E-4
1482.421875; 1.11589E-4
1488.281250; 1.00843E-4
1494.140625; 1.08714E-4
1500.000000; 1.20059E-4
1505.859375; 1.15659E-4
1511.718750; 1.12919E-4
1517.578125; 1.01793E-4
1523.437500; 1.04089E-4
1529.296875; 9.41124E-5
1535.156250; 9.73105E-5
1541.015625; 1.12415E-4
1546.875000; 1.08782E-4
1552.734375; 1.19999E-4
1558.593750; 1.17787E-4
1564.453125; 1.10638E-4
1570.312500; 1.13802E-4
1576.171875; 1.15271E-4
1582.031250; 1.16401E-4
1587.890625; 1.05165E-4
1593.750000; 1.01169E-4
1599.609375; 1.05435E-4
1605.468750; 9.81703E-5
1611.328125; 1.12923E-4
1617.187500; 1.06526E-4
1623.046875; 1.05222E-4
1628.906250; 1.04864E-4
1634.765625; 1.02689E-4
1640.625000; 9.83275E-5
1646.484375; 1.08971E-4
1652.343750; 9.96116E-5
1658.203125; 9.53223E-5
1664.062500; 1.21448E-4
1669.921875; 1.33098E-4
1675.781250; 1.06371E-4
1681.640625; 1.09056E-4
1687.500000; 1.09221E-4
1693.359375; 1.03429E-4
1699.218750; 1.02919E-4
1705.078125; 9.61726E-5
1710.937500; 1.02968E-4
1716.796875; 1.16961E-4
1722.656250; 1.25496E-4
1728.515625; 1.19214E-4
1734.375000; 1.16864E-4
1740.234375; 1.11475E-4
1746.093750; 1.07252E-4
1751.953125; 1.10351E-4
1757.812500; 1.12653E-4
1763.671875; 9.96192E-5
1769.531250; 1.05229E-4
1775.390625; 1.04749E-4
1781.250000; 1.04132E-4
1787.109375; 9.81044E-5
1792.968750; 9.85544E-5
1798.828125; 1.07666E-4
1804.687500; 1.05100E-4
1810.546875; 9.73164E-5
1816.406250; 8.55436E-5
1822.265625; 9.79135E-5
1828.125000; 1.04309E-4
1833.984375; 1.06814E-4
1839.843750; 1.05181E-4
1845.703125; 1.18237E-4
1851.562500; 1.21429E-4
1857.421875; 1.07837E-4
1863.281250; 1.09594E-4
1869.140625; 1.09661E-4
1875.000000; 1.09161E-4
1880.859375; 1.05453E-4
1886.718750; 9.71923E-5
1892.578125; 9.01971E-5
1898.437500; 1.00249E-4
1904.296875; 1.04999E-4
1910.156250; 1.13879E-4
1916.015625; 1.06850E-4
1921.875000; 1.10457E-4
1927.734375; 1.01715E-4
1933.593750; 8.79214E-5
1939.453125; 9.86415E-5
1945.312500; 1.11379E-4
1951.171875; 1.18815E-4
1957.031250; 1.09911E-4
1962.890625; 1.06304E-4
1968.750000; 1.18035E-4
1974.609375; 1.20279E-4
1980.468750; 1.08507E-4
1986.328125; 9.51309E-5
1992.187500; 1.06120E-4
1998.046875; 1.71357E-4
2003.906250; 1.57095E-4
2009.765625; 1.00767E-4
2015.625000; 1.05126E-4
2021.484375; 1.23137E-4
2027.343750; 1.21840E-4
2033.203125; 1.03482E-4
2039.062500; 1.01038E-4
2044.921875; 1.12893E-4
2050.781250; 1.18008E-4
2056.640625; 1.06330E-4
2062.500000; 1.00642E-4
2068.359375; 9.57685E-5
2074.218750; 1.13727E-4
2080.078125; 1.13528E-4
2085.937500; 1.13011E-4
2091.796875; 1.12454E-4
2097.656250; 1.14291E-4
2103.515625; 1.09347E-4
2109.375000; 1.00488E-4
2115.234375; 1.08179E-4
2121.093750; 1.09526E-4
2126.953125; 1.08384E-4
2132.812500; 1.12555E-4
2138.671875; 1.03715E-4
2144.531250; 1.00251E-4
2150.390625; 1.15524E-4
2156.250000; 1.03361E-4
2162.109375; 9.85130E-5
2167.968750; 1.07023E-4
2173.828125; 1.09132E-4
2179.687500; 1.09164E-4
2185.546875; 1.14121E-4
2191.406250; 1.13057E-4
2197.265625; 1.08402E-4
2203.125000; 1.10212E-4
2208.984375; 1.00601E-4
2214.843750; 1.10974E-4
2220.703125; 1.02406E-4
2226.562500; 1.03487E-4
2232.421875; 1.00589E-4
2238.281250; 1.06448E-4
2244.140625; 1.05675E-4
2250.000000; 9.97391E-5
2255.859375; 1.11140E-4
2261.718750; 1.06866E-4
2267.578125; 9.62124E-5
2273.437500; 1.09069E-4
2279.296875; 1.02025E-4
2285.156250; 1.06089E-4
2291.015625; 1.07229E-4
2296.875000; 1.16257E-4
2302.734375; 1.15457E-4
2308.593750; 1.02975E-4
2314.453125; 9.61635E-5
2320.312500; 1.02048E-4
2326.171875; 9.51214E-5
2332.031250; 1.00932E-4
2337.890625; 9.64479E-5
2343.750000; 1.02704E-4
2349.609375; 1.19302E-4
2355.468750; 1.11294E-4
2361.328125; 1.08579E-4
2367.187500; 1.17337E-4
2373.046875; 1.15080E-4
2378.906250; 1.16118E-4
2384.765625; 1.07527E-4
2390.625000; 1.02681E-4
2396.484375; 1.03514E-4
2402.343750; 1.02022E-4
2408.203125; 1.07258E-4
2414.062500; 1.05165E-4
2419.921875; 1.09836E-4
2425.781250; 1.16504E-4
2431.640625; 1.12024E-4
2437.500000; 1.06981E-4
2443.359375; 9.58391E-5
2449.218750; 1.00027E-4
2455.078125; 1.01334E-4
2460.937500; 1.07158E-4
2466.796875; 1.00682E-4
2472.656250; 1.10356E-4
2478.515625; 9.75095E-5
2484.375000; 1.08325E-4
2490.234375; 1.11681E-4
2496.093750; 1.14384E-4
2501.953125; 1.06504E-4
2507.812500; 9.78304E-5
2513.671875; 9.85044E-5
2519.531250; 9.70646E-5
2525.390625; 1.08406E-4
2531.250000; 1.12439E-4
2537.109375; 1.11006E-4
2542.968750; 9.91059E-5
2548.828125; 9.55420E-5
2554.687500; 9.85664E-5
2560.546875; 1.13959E-4
2566.406250; 1.07823E-4
2572.265625; 1.07696E-4
2578.125000; 9.45416E-5
2583.984375; 9.54824E-5
2589.843750; 9.40034E-5
2595.703125; 1.06416E-4
2601.562500; 1.21834E-4
2607.421875; 1.14156E-4
2613.281250; 1.16387E-4
2619.140625; 1.19683E-4
2625.000000; 1.17989E-4
2630.859375; 1.18000E-4
2636.718750; 1.15810E-4
2642.578125; 1.16252E-4
2648.437500; 1.04607E-4
2654.296875; 9.17098E-5
2660.156250; 9.70461E-5
2666.015625; 1.04986E-4
2671.875000; 1.10466E-4
2677.734375; 1.09059E-4
2683.593750; 1.18182E-4
2689.453125; 1.12735E-4
2695.312500; 1.19770E-4
2701.171875; 1.22005E-4
2707.031250; 1.04900E-4
2712.890625; 1.06130E-4
2718.750000; 1.07048E-4
2724.609375; 9.97321E-5
2730.468750; 1.03364E-4
2736.328125; 1.01969E-4
2742.187500; 9.80236E-5
2748.046875; 1.07041E-4
2753.906250; 9.39060E-5
2759.765625; 1.01972E-4
2765.625000; 1.08532E-4
2771.484375; 1.11596E-4
2777.343750; 1.06269E-4
2783.203125; 1.01905E-4
2789.062500; 1.03463E-4
2794.921875; 1.08665E-4
2800.781250; 1.16172E-4
2806.640625; 1.13459E-4
2812.500000; 1.09147E-4
2818.359375; 1.09270E-4
2824.218750; 1.02116E-4
2830.078125; 9.85990E-5
2835.937500; 9.85516E-5
2841.796875; 9.57028E-5
2847.656250; 1.08672E-4
2853.515625; 1.03980E-4
2859.375000; 9.41846E-5
2865.234375; 9.65832E-5
2871.093750; 1.07467E-4
2876.953125; 1.15462E-4
2882.812500; 1.06446E-4
2888.671875; 1.08547E-4
2894.531250; 1.10181E-4
2900.390625; 9.80228E-5
2906.250000; 1.04614E-4
2912.109375; 1.07386E-4
2917.968750; 1.00070E-4
2923.828125; 9.54663E-5
2929.687500; 9.70066E-5
2935.546875; 1.01805E-4
2941.406250; 1.10630E-4
2947.265625; 1.06782E-4
2953.125000; 1.00922E-4
2958.984375; 1.02349E-4
2964.843750; 9.21830E-5
2970.703125; 9.38037E-5
2976.562500; 1.05677E-4
2982.421875; 1.17576E-4
2988.281250; 1.12852E-4
2994.140625; 1.07835E-4
3000.000000; 1.17609E-4
3005.859375; 1.02879E-4
3011.718750; 8.91876E-5
3017.578125; 9.28809E-5
3023.437500; 9.82969E-5
3029.296875; 9.98855E-5
3035.156250; 9.50704E-5
3041.015625; 8.80798E-5
3046.875000; 9.34942E-5
3052.734375; 1.00044E-4
3058.593750; 9.45743E-5
3064.453125; 9.20230E-5
3070.312500; 9.11458E-5
3076.171875; 1.02490E-4
3082.031250; 1.00970E-4
3087.890625; 1.04342E-4
3093.750000; 1.02006E-4
3099.609375; 9.86538E-5
3105.468750; 9.91812E-5
3111.328125; 1.12639E-4
3117.187500; 1.16997E-4
3123.046875; 9.51039E-5
3128.906250; 9.77408E-5
3134.765625; 1.11696E-4
3140.625000; 1.16582E-4
3146.484375; 9.91831E-5
3152.343750; 9.94442E-5
3158.203125; 1.04702E-4
3164.062500; 1.05604E-4
3169.921875; 1.06093E-4
3175.781250; 1.03771E-4
3181.640625; 9.90295E-5
3187.500000; 9.56918E-5
3193.359375; 8.96705E-5
3199.218750; 1.06908E-4
3205.078125; 1.14925E-4
3210.937500; 1.02372E-4
3216.796875; 1.04457E-4
3222.656250; 1.04580E-4
3228.515625; 1.04071E-4
3234.375000; 9.88525E-5
3240.234375; 9.09517E-5
3246.093750; 1.10908E-4
3251.953125; 1.21809E-4
3257.812500; 1.10407E-4
3263.671875; 1.00650E-4
3269.531250; 1.12323E-4
3275.390625; 1.16468E-4
3281.250000; 1.12393E-4
3287.109375; 1.06063E-4
3292.968750; 9.92924E-5
3298.828125; 1.01670E-4
3304.687500; 1.00424E-4
3310.546875; 9.71846E-5
3316.406250; 1.02907E-4
3322.265625; 1.13061E-4
3328.125000; 1.19891E-4
3333.984375; 1.14999E-4
3339.843750; 1.20044E-4
3345.703125; 1.11274E-4
3351.562500; 1.03207E-4
3357.421875; 9.72196E-5
3363.281250; 1.01458E-4
3369.140625; 1.15980E-4
3375.000000; 1.03215E-4
3380.859375; 9.85876E-5
3386.718750; 1.10186E-4
3392.578125; 1.01828E-4
3398.437500; 1.02771E-4
3404.296875; 1.07591E-4
3410.156250; 9.75741E-5
3416.015625; 1.04501E-4
3421.875000; 1.06995E-4
3427.734375; 1.07642E-4
3433.593750; 9.53573E-5
3439.453125; 1.00617E-4
3445.312500; 1.07021E-4
3451.171875; 1.12217E-4
3457.031250; 1.06039E-4
3462.890625; 1.08489E-4
3468.750000; 1.04735E-4
3474.609375; 1.07607E-4
3480.468750; 1.09276E-4
3486.328125; 1.03726E-4
3492.187500; 9.24788E-5
3498.046875; 9.53694E-5
3503.906250; 1.12987E-4
3509.765625; 1.22220E-4
3515.625000; 1.03026E-4
3521.484375; 1.09226E-4
3527.343750; 1.08590E-4
3533.203125; 1.06456E-4
3539.062500; 1.00070E-4
3544.921875; 9.95580E-5
3550.781250; 9.53998E-5
3556.640625; 9.13357E-5
3562.500000; 9.82486E-5
3568.359375; 1.05509E-4
3574.218750; 1.08547E-4
3580.078125; 1.00326E-4
3585.937500; 9.75830E-5
3591.796875; 1.01085E-4
3597.656250; 1.03484E-4
3603.515625; 1.03002E-4
3609.375000; 1.09366E-4
3615.234375; 1.18980E-4
3621.093750; 1.10080E-4
3626.953125; 1.04837E-4
3632.812500; 1.00068E-4
3638.671875; 9.67039E-5
3644.531250; 1.04654E-4
3650.390625; 1.03389E-4
3656.250000; 9.13008E-5
3662.109375; 9.27453E-5
3667.968750; 9.82236E-5
3673.828125; 1.06997E-4
3679.687500; 1.07620E-4
3685.546875; 1.04829E-4
3691.406250; 1.01584E-4
3697.265625; 1.07512E-4
3703.125000; 1.10773E-4
3708.984375; 1.09357E-4
3714.843750; 1.05925E-4
3720.703125; 1.07393E-4
3726.562500; 1.03534E-4
3732.421875; 1.05824E-4
3738.281250; 1.07668E-4
3744.140625; 1.10360E-4
3750.000000; 1.15577E-4
3755.859375; 1.11500E-4
3761.718750; 1.07519E-4
3767.578125; 9.74375E-5
3773.437500; 9.90934E-5
3779.296875; 1.04027E-4
3785.156250; 1.05589E-4
3791.015625; 9.35545E-5
3796.875000; 1.04877E-4
3802.734375; 9.69062E-5
3808.593750; 9.37258E-5
3814.453125; 9.86059E-5
3820.312500; 9.64712E-5
3826.171875; 1.00008E-4
3832.031250; 9.96305E-5
3837.890625; 1.06662E-4
3843.750000; 1.04152E-4
3849.609375; 1.13362E-4
3855.468750; 1.09880E-4
3861.328125; 1.10676E-4
3867.187500; 1.06913E-4
3873.046875; 1.14085E-4
3878.906250; 1.17269E-4
3884.765625; 1.11042E-4
3890.625000; 1.13123E-4
3896.484375; 1.08351E-4
3902.343750; 1.02077E-4
3908.203125; 1.05814E-4
3914.062500; 1.04632E-4
3919.921875; 9.62903E-5
3925.781250; 1.03604E-4
3931.640625; 1.03266E-4
3937.500000; 9.17471E-5
3943.359375; 9.64191E-5
3949.218750; 1.12392E-4
3955.078125; 1.01574E-4
3960.937500; 1.08051E-4
3966.796875; 1.03858E-4
3972.656250; 1.01572E-4
3978.515625; 1.05339E-4
3984.375000; 1.01834E-4
3990.234375; 1.04802E-4
3996.093750; 9.65036E-5
4001.953125; 1.04475E-4
4007.812500; 1.07927E-4
4013.671875; 9.95515E-5
4019.531250; 9.57963E-5
4025.390625; 9.64115E-5
4031.250000; 9.87190E-5
4037.109375; 1.15509E-4
4042.968750; 1.03562E-4
4048.828125; 1.08060E-4
4054.687500; 1.16719E-4
4060.546875; 9.96117E-5
4066.406250; 1.04188E-4
4072.265625; 1.13676E-4
4078.125000; 1.10360E-4
4083.984375; 1.09753E-4
4089.843750; 1.10081E-4
4095.703125; 1.09417E-4
4101.562500; 1.06221E-4
4107.421875; 1.10088E-4
4113.281250; 1.08565E-4
4119.140625; 9.73805E-5
4125.000000; 1.05614E-4
4130.859375; 9.62120E-5
4136.718750; 1.06558E-4
4142.578125; 1.14736E-4
4148.437500; 1.14628E-4
4154.296875; 1.22455E-4
4160.156250; 1.15604E-4
4166.015625; 9.88156E-5
4171.875000; 9.92333E-5
4177.734375; 1.06816E-4
4183.593750; 1.04367E-4
4189.453125; 9.71901E-5
4195.312500; 1.00511E-4
4201.171875; 1.03934E-4
4207.031250; 9.89553E-5
4212.890625; 9.79525E-5
4218.750000; 1.05141E-4
4224.609375; 1.09013E-4
4230.468750; 1.06914E-4
4236.328125; 1.04722E-4
4242.187500; 1.04508E-4
4248.046875; 1.03321E-4
4253.906250; 9.88023E-5
4259.765625; 1.03441E-4
4265.625000; 9.70527E-5
4271.484375; 9.17295E-5
4277.343750; 1.06910E-4
4283.203125; 1.06338E-4
4289.062500; 9.81288E-5
4294.921875; 9.96881E-5
4300.781250; 9.93566E-5
4306.640625; 1.09221E-4
4312.500000; 1.00359E-4
4318.359375; 1.06167E-4
4324.218750; 1.13810E-4
4330.078125; 1.12613E-4
4335.937500; 1.18651E-4
4341.796875; 1.09260E-4
4347.656250; 9.60404E-5
4353.515625; 9.82898E-5
4359.375000; 1.09104E-4
4365.234375; 1.06839E-4
4371.093750; 9.90720E-5
4376.953125; 1.18471E-4
4382.812500; 1.16493E-4
4388.671875; 1.04714E-4
4394.531250; 1.04046E-4
4400.390625; 9.89886E-5
4406.250000; 9.64183E-5
4412.109375; 9.68029E-5
4417.968750; 1.00603E-4
4423.828125; 9.68066E-5
4429.687500; 1.03430E-4
4435.546875; 1.02202E-4
4441.406250; 1.03081E-4
4447.265625; 9.95753E-5
4453.125000; 9.58864E-5
4458.984375; 1.08416E-4
4464.843750; 1.08705E-4
4470.703125; 1.01326E-4
4476.562500; 1.16666E-4
4482.421875; 1.23014E-4
4488.281250; 1.20364E-4
4494.140625; 1.02199E-4
4500.000000; 1.06622E-4
4505.859375; 1.02751E-4
4511.718750; 9.13526E-5
4517.578125; 1.04605E-4
4523.437500; 1.06318E-4
4529.296875; 1.07383E-4
4535.156250; 1.05823E-4
4541.015625; 1.01017E-4
4546.875000; 9.55503E-5
4552.734375; 1.00479E-4
4558.593750; 9.96277E-5
4564.453125; 1.03533E-4
4570.312500; 1.00232E-4
4576.171875; 9.28157E-5
4582.031250; 1.02314E-4
4587.890625; 9.67194E-5
4593.750000; 9.23889E-5
4599.609375; 9.51715E-5
4605.468750; 1.05209E-4
4611.328125; 1.04200E-4
4617.187500; 1.04802E-4
4623.046875; 9.97755E-5
4628.906250; 9.64750E-5
4634.765625; 1.11884E-4
4640.625000; 1.17171E-4
4646.484375; 1.04189E-4
4652.343750; 1.12100E-4
4658.203125; 9.62343E-5
4664.062500; 9.73994E-5
4669.921875; 9.64239E-5
4675.781250; 9.78600E-5
4681.640625; 9.80423E-5
4687.500000; 1.00016E-4
4693.359375; 1.04281E-4
4699.218750; 9.89759E-5
4705.078125; 1.05051E-4
4710.937500; 1.06241E-4
4716.796875; 1.03298E-4
4722.656250; 9.82773E-5
4728.515625; 9.86527E-5
4734.375000; 1.05925E-4
4740.234375; 1.03434E-4
4746.093750; 1.13844E-4
4751.953125; 1.15829E-4
4757.812500; 1.13180E-4
4763.671875; 1.10476E-4
4769.531250; 9.66958E-5
4775.390625; 1.12569E-4
4781.250000; 1.13624E-4
4787.109375; 1.16381E-4
4792.968750; 1.13673E-4
4798.828125; 9.60356E-5
4804.687500; 1.11418E-4
4810.546875; 1.09850E-4
4816.406250; 1.08069E-4
4822.265625; 9.78261E-5
4828.125000; 9.52418E-5
4833.984375; 1.01779E-4
4839.843750; 1.01915E-4
4845.703125; 9.45269E-5
4851.562500; 9.44717E-5
4857.421875; 1.02332E-4
4863.281250; 1.15249E-4
4869.140625; 1.07879E-4
4875.000000; 9.57865E-5
4880.859375; 1.03652E-4
4886.718750; 9.91338E-5
4892.578125; 1.12165E-4
4898.437500; 9.76024E-5
4904.296875; 1.01566E-4
4910.156250; 1.04625E-4
4916.015625; 1.01778E-4
4921.875000; 9.60638E-5
4927.734375; 9.67425E-5
4933.593750; 9.84779E-5
4939.453125; 1.01495E-4
4945.312500; 1.05083E-4
4951.171875; 1.15646E-4
4957.031250; 1.06934E-4
4962.890625; 1.03073E-4
4968.750000; 9.93476E-5
4974.609375; 1.16864E-4
4980.468750; 1.21389E-4
4986.328125; 9.38582E-5
4992.187500; 9.55473E-5
4998.046875; 1.02041E-4
5003.906250; 1.04797E-4
5009.765625; 1.01754E-4
5015.625000; 9.57580E-5
5021.484375; 1.11340E-4
5027.343750; 1.10980E-4
5033.203125; 1.11899E-4
5039.062500; 1.09232E-4
5044.921875; 1.11220E-4
5050.781250; 1.09929E-4
5056.640625; 1.00060E-4
5062.500000; 9.53684E-5
5068.359375; 1.08989E-4
5074.218750; 1.06815E-4
5080.078125; 1.14832E-4
5085.937500; 1.04697E-4
5091.796875; 9.81137E-5
5097.656250; 1.02484E-4
5103.515625; 1.12828E-4
5109.375000; 1.14199E-4
5115.234375; 1.10009E-4
5121.093750; 1.05922E-4
5126.953125; 1.07272E-4
5132.812500; 1.07942E-4
5138.671875; 9.67865E-5
5144.531250; 1.02598E-4
5150.390625; 9.86802E-5
5156.250000; 1.07578E-4
5162.109375; 1.07956E-4
5167.968750; 1.12964E-4
5173.828125; 1.05804E-4
5179.687500; 1.14703E-4
5185.546875; 1.06290E-4
5191.406250; 1.04493E-4
5197.265625; 1.02356E-4
5203.125000; 9.95535E-5
5208.984375; 1.13207E-4
5214.843750; 1.11191E-4
5220.703125; 1.07626E-4
5226.562500; 9.84258E-5
5232.421875; 1.03106E-4
5238.281250; 1.02638E-4
5244.140625; 9.52358E-5
5250.000000; 9.90217E-5
5255.859375; 9.64747E-5
5261.718750; 1.09264E-4
5267.578125; 1.06518E-4
5273.437500; 1.04600E-4
5279.296875; 1.18344E-4
5285.156250; 1.14480E-4
5291.015625; 1.06872E-4
5296.875000; 1.08408E-4
5302.734375; 1.09042E-4
5308.593750; 1.05252E-4
5314.453125; 9.68835E-5
5320.312500; 1.03246E-4
5326.171875; 9.97449E-5
5332.031250; 9.17135E-5
5337.890625; 9.72008E-5
5343.750000; 9.79931E-5
5349.609375; 1.04324E-4
5355.468750; 1.10395E-4
5361.328125; 1.09107E-4
5367.187500; 1.08597E-4
5373.046875; 1.01158E-4
5378.906250; 9.34927E-5
5384.765625; 8.26350E-5
5390.625000; 9.51316E-5
5396.484375; 1.06104E-4
5402.343750; 1.12434E-4
5408.203125; 1.13998E-4
5414.062500; 1.08660E-4
5419.921875; 1.07596E-4
5425.781250; 1.07236E-4
5431.640625; 1.02885E-4
5437.500000; 1.11150E-4
5443.359375; 1.08839E-4
5449.218750; 1.03904E-4
5455.078125; 1.02871E-4
5460.937500; 1.00192E-4
5466.796875; 9.46291E-5
5472.656250; 9.83843E-5
5478.515625; 1.03626E-4
5484.375000; 9.27888E-5
5490.234375; 8.71252E-5
5496.093750; 9.68495E-5
5501.953125; 1.00646E-4
5507.812500; 9.47303E-5
5513.671875; 9.73937E-5
5519.531250; 9.99249E-5
5525.390625; 9.92433E-5
5531.250000; 9.57198E-5
5537.109375; 9.27773E-5
5542.968750; 1.07686E-4
5548.828125; 1.10394E-4
5554.687500; 1.01445E-4
5560.546875; 8.66470E-5
5566.406250; 8.66100E-5
5572.265625; 1.01664E-4
5578.125000; 1.07914E-4
5583.984375; 9.76711E-5
5589.843750; 9.64366E-5
5595.703125; 1.09738E-4
5601.562500; 1.12650E-4
5607.421875; 1.06151E-4
5613.281250; 1.05629E-4
5619.140625; 1.06425E-4
5625.000000; 1.07711E-4
5630.859375; 9.55302E-5
5636.718750; 9.92567E-5
5642.578125; 1.05146E-4
5648.437500; 1.00521E-4
5654.296875; 9.15348E-5
5660.156250; 1.01346E-4
5666.015625; 1.08405E-4
5671.875000; 1.09242E-4
5677.734375; 1.05279E-4
5683.593750; 1.04605E-4
5689.453125; 9.91554E-5
5695.312500; 1.02053E-4
5701.171875; 1.18554E-4
5707.031250; 1.16864E-4
5712.890625; 1.12447E-4
5718.750000; 9.81248E-5
5724.609375; 1.01153E-4
5730.468750; 1.13563E-4
5736.328125; 1.08326E-4
5742.187500; 9.81841E-5
5748.046875; 1.02705E-4
5753.906250; 9.96170E-5
5759.765625; 1.04680E-4
5765.625000; 1.04780E-4
5771.484375; 1.11846E-4
5777.343750; 1.11669E-4
5783.203125; 1.02101E-4
5789.062500; 9.92393E-5
5794.921875; 1.06331E-4
5800.781250; 1.17274E-4
5806.640625; 1.11759E-4
5812.500000; 9.19162E-5
5818.359375; 9.65270E-5
5824.218750; 9.14456E-5
5830.078125; 9.90189E-5
5835.937500; 1.05285E-4
5841.796875; 1.02306E-4
5847.656250; 1.02839E-4
5853.515625; 1.02324E-4
5859.375000; 1.12941E-4
5865.234375; 1.19669E-4
5871.093750; 1.15028E-4
5876.953125; 1.10044E-4
5882.812500; 1.01996E-4
5888.671875; 9.70664E-5
5894.531250; 1.01114E-4
5900.390625; 9.68816E-5
5906.250000; 1.13874E-4
5912.109375; 1.10654E-4
5917.968750; 1.12043E-4
5923.828125; 1.01047E-4
5929.687500; 1.02597E-4
5935.546875; 1.04410E-4
5941.406250; 1.05131E-4
5947.265625; 1.06952E-4
5953.125000; 1.11282E-4
5958.984375; 9.75773E-5
5964.843750; 1.01860E-4
5970.703125; 1.08883E-4
5976.562500; 1.06699E-4
5982.421875; 1.05367E-4
5988.281250; 1.09453E-4
5994.140625; 1.01462E-4
6000.000000; 9.46404E-5
6005.859375; 1.02718E-4
6011.718750; 1.06819E-4
6017.578125; 1.02349E-4
6023.437500; 9.89548E-5
6029.296875; 9.11319E-5
6035.156250; 9.89527E-5
6041.015625; 1.13552E-4
6046.875000; 1.21952E-4
6052.734375; 1.09299E-4
6058.593750; 1.00295E-4
6064.453125; 1.04177E-4
6070.312500; 1.04132E-4
6076.171875; 1.05060E-4
6082.031250; 1.02144E-4
6087.890625; 1.12386E-4
6093.750000; 1.02087E-4
6099.609375; 1.02473E-4
6105.468750; 1.00592E-4
6111.328125; 1.12519E-4
6117.187500; 1.19419E-4
6123.046875; 1.08829E-4
6128.906250; 1.07648E-4
6134.765625; 1.03704E-4
6140.625000; 1.03722E-4
6146.484375; 1.10121E-4
6152.343750; 1.05852E-4
6158.203125; 1.05555E-4
6164.062500; 9.95300E-5
6169.921875; 1.07348E-4
6175.781250; 1.09054E-4
6181.640625; 1.05313E-4
6187.500000; 1.08936E-4
6193.359375; 1.01248E-4
6199.218750; 9.52458E-5
6205.078125; 1.03305E-4
6210.937500; 1.04017E-4
6216.796875; 1.02848E-4
6222.656250; 1.08399E-4
6228.515625; 1.22694E-4
6234.375000; 1.20833E-4
6240.234375; 9.73355E-5
6246.093750; 1.06394E-4
6251.953125; 1.23410E-4
6257.812500; 1.10697E-4
6263.671875; 1.06306E-4
6269.531250; 1.02624E-4
6275.390625; 1.07699E-4
6281.250000; 1.05674E-4
6287.109375; 1.03999E-4
6292.968750; 1.10242E-4
6298.828125; 1.12240E-4
6304.687500; 1.01584E-4
6310.546875; 9.28561E-5
6316.406250; 1.03335E-4
6322.265625; 9.65760E-5
6328.125000; 9.85955E-5
6333.984375; 1.08350E-4
6339.843750; 1.01310E-4
6345.703125; 9.37571E-5
6351.562500; 9.74212E-5
6357.421875; 9.47201E-5
6363.281250; 1.03986E-4
6369.140625; 1.08176E-4
6375.000000; 1.01884E-4
6380.859375; 9.79925E-5
6386.718750; 9.17728E-5
6392.578125; 1.02368E-4
6398.437500; 1.06179E-4
6404.296875; 9.74798E-5
6410.156250; 1.02784E-4
6416.015625; 1.01315E-4
6421.875000; 9.37629E-5
6427.734375; 1.01267E-4
6433.593750; 1.10279E-4
6439.453125; 1.15893E-4
6445.312500; 1.10541E-4
6451.171875; 1.06977E-4
6457.031250; 1.00383E-4
6462.890625; 1.02586E-4
6468.750000; 1.00167E-4
6474.609375; 1.02326E-4
6480.468750; 1.05462E-4
6486.328125; 1.07109E-4
6492.187500; 9.96920E-5
6498.046875; 9.98933E-5
6503.906250; 1.07545E-4
6509.765625; 1.12860E-4
6515.625000; 1.16304E-4
6521.484375; 1.00977E-4
6527.343750; 1.01143E-4
6533.203125; 1.01476E-4
6539.062500; 9.12807E-5
6544.921875; 1.05790E-4
6550.781250; 1.08207E-4
6556.640625; 9.33569E-5
6562.500000; 9.68344E-5
6568.359375; 1.01940E-4
6574.218750; 1.10385E-4
6580.078125; 1.03443E-4
6585.937500; 1.04694E-4
6591.796875; 1.08731E-4
6597.656250; 9.43591E-5
6603.515625; 1.00572E-4
6609.375000; 1.01198E-4
6615.234375; 1.03040E-4
6621.093750; 1.00454E-4
6626.953125; 1.02139E-4
6632.812500; 1.14751E-4
6638.671875; 1.16056E-4
6644.531250; 9.30034E-5
6650.390625; 9.93045E-5
6656.250000; 1.04655E-4
6662.109375; 9.69342E-5
6667.968750; 9.72550E-5
6673.828125; 1.04458E-4
6679.687500; 9.58639E-5
6685.546875; 9.78972E-5
6691.406250; 1.00004E-4
6697.265625; 9.75942E-5
6703.125000; 1.05872E-4
6708.984375; 1.00073E-4
6714.843750; 9.96564E-5
6720.703125; 1.09732E-4
6726.562500; 1.00480E-4
6732.421875; 9.92880E-5
6738.281250; 1.02224E-4
6744.140625; 9.84266E-5
6750.000000; 1.05937E-4
6755.859375; 9.96512E-5
6761.718750; 1.01101E-4
6767.578125; 1.05677E-4
6773.437500; 1.09446E-4
6779.296875; 1.08139E-4
6785.156250; 1.05607E-4
6791.015625; 1.05118E-4
6796.875000; 1.05216E-4
6802.734375; 1.07686E-4
6808.593750; 1.09937E-4
6814.453125; 1.04813E-4
6820.312500; 1.02986E-4
6826.171875; 9.79382E-5
6832.031250; 1.05975E-4
6837.890625; 9.80093E-5
6843.750000; 9.34877E-5
6849.609375; 9.73247E-5
6855.468750; 1.01973E-4
6861.328125; 9.89145E-5
6867.187500; 9.47003E-5
6873.046875; 1.04634E-4
6878.906250; 1.06902E-4
6884.765625; 1.05055E-4
6890.625000; 1.11035E-4
6896.484375; 1.08877E-4
6902.343750; 1.11600E-4
6908.203125; 1.11958E-4
6914.062500; 9.72429E-5
6919.921875; 9.14664E-5
6925.781250; 9.90604E-5
6931.640625; 1.01247E-4
6937.500000; 1.04314E-4
6943.359375; 9.99656E-5
6949.218750; 1.08701E-4
6955.078125; 1.11088E-4
6960.937500; 1.05251E-4
6966.796875; 1.08096E-4
6972.656250; 1.04414E-4
6978.515625; 1.15622E-4
6984.375000; 1.12851E-4
6990.234375; 1.06883E-4
6996.093750; 1.10253E-4
7001.953125; 1.04605E-4
7007.812500; 1.09689E-4
7013.671875; 1.00340E-4
7019.531250; 9.63321E-5
7025.390625; 9.21936E-5
7031.250000; 1.03691E-4
7037.109375; 1.05483E-4
7042.968750; 9.88504E-5
7048.828125; 1.00820E-4
7054.687500; 1.09948E-4
7060.546875; 1.00845E-4
7066.406250; 9.13866E-5
7072.265625; 8.83340E-5
7078.125000; 8.81010E-5
7083.984375; 9.89699E-5
7089.843750; 1.03392E-4
7095.703125; 1.15321E-4
7101.562500; 1.16954E-4
7107.421875; 1.03176E-4
7113.281250; 1.02356E-4
7119.140625; 1.08138E-4
7125.000000; 9.41591E-5
7130.859375; 9.51395E-5
7136.718750; 1.08305E-4
7142.578125; 1.06638E-4
7148.437500; 1.07784E-4
7154.296875; 1.17516E-4
7160.156250; 1.13728E-4
7166.015625; 1.07827E-4
7171.875000; 1.01881E-4
7177.734375; 9.65553E-5
7183.593750; 1.08146E-4
7189.453125; 1.02509E-4
7195.312500; 9.61052E-5
7201.171875; 1.02969E-4
7207.031250; 1.04501E-4
7212.890625; 8.81716E-5
7218.750000; 8.79400E-5
7224.609375; 1.03726E-4
7230.468750; 1.01791E-4
7236.328125; 1.01187E-4
7242.187500; 1.06230E-4
7248.046875; 1.00974E-4
7253.906250; 1.11854E-4
7259.765625; 1.07279E-4
7265.625000; 1.00336E-4
7271.484375; 1.09066E-4
7277.343750; 1.11867E-4
7283.203125; 1.07548E-4
7289.062500; 1.07190E-4
7294.921875; 1.02196E-4
7300.781250; 1.12896E-4
7306.640625; 1.15094E-4
7312.500000; 1.11428E-4
7318.359375; 1.10804E-4
7324.218750; 1.08231E-4
7330.078125; 9.58991E-5
7335.937500; 9.88156E-5
7341.796875; 9.64031E-5
7347.656250; 1.00029E-4
7353.515625; 1.05086E-4
7359.375000; 9.70163E-5
7365.234375; 9.95788E-5
7371.093750; 1.03107E-4
7376.953125; 1.05017E-4
7382.812500; 1.04423E-4
7388.671875; 1.01339E-4
7394.531250; 1.06082E-4
7400.390625; 1.06919E-4
7406.250000; 9.65671E-5
7412.109375; 1.09892E-4
7417.968750; 1.06990E-4
7423.828125; 9.81498E-5
7429.687500; 1.02468E-4
7435.546875; 9.97313E-5
7441.406250; 1.03216E-4
7447.265625; 1.09082E-4
7453.125000; 1.12196E-4
7458.984375; 1.10013E-4
7464.843750; 1.02934E-4
7470.703125; 1.00621E-4
7476.562500; 1.07930E-4
7482.421875; 1.02459E-4
7488.281250; 1.01035E-4
7494.140625; 1.05416E-4
7500.000000; 1.07430E-4
7505.859375; 1.02231E-4
7511.718750; 9.89826E-5
7517.578125; 1.00326E-4
7523.437500; 1.08939E-4
7529.296875; 1.15047E-4
7535.156250; 1.00561E-4
7541.015625; 9.68754E-5
7546.875000; 1.00612E-4
7552.734375; 1.07740E-4
7558.593750; 1.03999E-4
7564.453125; 1.00031E-4
7570.312500; 9.82299E-5
7576.171875; 9.47630E-5
7582.031250; 9.97857E-5
7587.890625; 1.11240E-4
7593.750000; 9.88361E-5
7599.609375; 1.02466E-4
7605.468750; 9.51044E-5
7611.328125; 1.00944E-4
7617.187500; 1.01335E-4
7623.046875; 1.05781E-4
7628.906250; 1.06225E-4
7634.765625; 1.05137E-4
7640.625000; 9.41980E-5
7646.484375; 9.83042E-5
7652.343750; 9.70766E-5
7658.203125; 1.02666E-4
7664.062500; 1.14363E-4
7669.921875; 1.03833E-4
7675.781250; 9.37360E-5
7681.640625; 1.05493E-4
7687.500000; 1.19364E-4
7693.359375; 1.07912E-4
7699.218750; 9.51528E-5
7705.078125; 1.07524E-4
7710.937500; 1.03051E-4
7716.796875; 1.00170E-4
7722.656250; 1.04938E-4
7728.515625; 1.01788E-4
7734.375000; 1.03684E-4
7740.234375; 1.04290E-4
7746.093750; 1.06153E-4
7751.953125; 1.07073E-4
7757.812500; 9.84984E-5
7763.671875; 1.06409E-4
7769.531250; 1.03826E-4
7775.390625; 8.82288E-5
7781.250000; 1.01143E-4
7787.109375; 1.07692E-4
7792.968750; 1.08961E-4
7798.828125; 1.02242E-4
7804.687500; 9.92836E-5
7810.546875; 9.85541E-5
7816.406250; 1.01063E-4
7822.265625; 9.92509E-5
7828.125000; 8.77109E-5
7833.984375; 9.19176E-5
7839.843750; 1.07513E-4
7845.703125; 1.04605E-4
7851.562500; 1.05517E-4
7857.421875; 1.02145E-4
7863.281250; 1.03661E-4
7869.140625; 9.72819E-5
7875.000000; 1.11359E-4
7880.859375; 1.09289E-4
7886.718750; 9.61325E-5
7892.578125; 9.86914E-5
7898.437500; 8.92888E-5
7904.296875; 9.67200E-5
7910.156250; 9.96815E-5
7916.015625; 9.28154E-5
7921.875000; 9.62941E-5
7927.734375; 9.49926E-5
7933.593750; 9.52914E-5
7939.453125; 9.01296E-5
7945.312500; 9.27466E-5
7951.171875; 1.02222E-4
7957.031250; 9.91235E-5
7962.890625; 1.09455E-4
7968.750000; 1.12035E-4
7974.609375; 1.20389E-4
7980.468750; 9.66003E-5
7986.328125; 8.71086E-5
7992.187500; 9.69508E-5
7998.046875; 1.13050E-4
8003.906250; 1.00310E-4
8009.765625; 1.01980E-4
8015.625000; 1.04863E-4
8021.484375; 9.73117E-5
8027.343750; 1.04793E-4
8033.203125; 1.10075E-4
8039.062500; 1.01602E-4
8044.921875; 9.82415E-5
8050.781250; 9.23327E-5
8056.640625; 9.14994E-5
8062.500000; 1.11005E-4
8068.359375; 1.08747E-4
8074.218750; 1.00285E-4
8080.078125; 9.77148E-5
8085.937500; 9.36395E-5
8091.796875; 1.00435E-4
8097.656250; 1.01477E-4
8103.515625; 1.07606E-4
8109.375000; 1.07848E-4
8115.234375; 1.05319E-4
8121.093750; 1.04943E-4
8126.953125; 1.01689E-4
8132.812500; 9.99860E-5
8138.671875; 9.65730E-5
8144.531250; 9.77887E-5
8150.390625; 9.38266E-5
8156.250000; 9.29420E-5
8162.109375; 9.56866E-5
8167.968750; 9.55801E-5
8173.828125; 1.02585E-4
8179.687500; 1.04214E-4
8185.546875; 1.07980E-4
8191.406250; 9.89152E-5
8197.265625; 1.00250E-4
8203.125000; 1.07256E-4
8208.984375; 1.18386E-4
8214.843750; 1.03773E-4
8220.703125; 9.01027E-5
8226.562500; 9.81987E-5
8232.421875; 1.12737E-4
8238.281250; 1.08332E-4
8244.140625; 9.66143E-5
8250.000000; 9.75951E-5
8255.859375; 1.08725E-4
8261.718750; 1.06139E-4
8267.578125; 1.10101E-4
8273.437500; 1.06862E-4
8279.296875; 1.01404E-4
8285.156250; 1.03636E-4
8291.015625; 9.61170E-5
8296.875000; 1.03186E-4
8302.734375; 1.05473E-4
8308.593750; 1.01694E-4
8314.453125; 1.14895E-4
8320.312500; 1.12666E-4
8326.171875; 1.02753E-4
8332.031250; 9.25312E-5
8337.890625; 9.91591E-5
8343.750000; 1.07248E-4
8349.609375; 1.00492E-4
8355.468750; 8.85962E-5
8361.328125; 9.17309E-5
8367.187500; 9.88743E-5
8373.046875; 1.01548E-4
8378.906250; 1.01905E-4
8384.765625; 1.02361E-4
8390.625000; 1.11182E-4
8396.484375; 1.15304E-4
8402.343750; 1.04270E-4
8408.203125; 9.82182E-5
8414.062500; 1.06571E-4
8419.921875; 1.04933E-4
8425.781250; 1.08234E-4
8431.640625; 1.10426E-4
8437.500000; 1.01186E-4
8443.359375; 9.53225E-5
8449.218750; 9.64090E-5
8455.078125; 9.69987E-5
8460.937500; 1.01229E-4
8466.796875; 1.14975E-4
8472.656250; 1.13118E-4
8478.515625; 1.08285E-4
8484.375000; 1.10847E-4
8490.234375; 1.07396E-4
8496.093750; 9.76194E-5
8501.953125; 1.00766E-4
8507.812500; 1.04744E-4
8513.671875; 1.03785E-4
8519.531250; 9.44497E-5
8525.390625; 9.72597E-5
8531.250000; 1.00138E-4
8537.109375; 9.51612E-5
8542.968750; 9.46289E-5
8548.828125; 1.09581E-4
8554.687500; 1.14512E-4
8560.546875; 1.10128E-4
8566.406250; 1.13137E-4
8572.265625; 1.08351E-4
8578.125000; 1.03389E-4
8583.984375; 1.02505E-4
8589.843750; 1.15299E-4
8595.703125; 1.10760E-4
8601.562500; 9.94316E-5
8607.421875; 1.06132E-4
8613.281250; 1.04654E-4
8619.140625; 9.65581E-5
8625.000000; 9.91970E-5
8630.859375; 1.01706E-4
8636.718750; 1.05527E-4
8642.578125; 1.01941E-4
8648.437500; 1.02252E-4
8654.296875; 1.04612E-4
8660.156250; 1.08714E-4
8666.015625; 1.00283E-4
8671.875000; 9.65194E-5
8677.734375; 9.74097E-5
8683.593750; 1.02628E-4
8689.453125; 1.06193E-4
8695.312500; 1.06621E-4
8701.171875; 1.09211E-4
8707.031250; 1.07511E-4
8712.890625; 1.06374E-4
8718.750000; 1.06993E-4
8724.609375; 1.10591E-4
8730.468750; 1.10963E-4
8736.328125; 1.04616E-4
8742.187500; 1.02196E-4
8748.046875; 1.02085E-4
8753.906250; 9.29492E-5
8759.765625; 1.02466E-4
8765.625000; 1.04494E-4
8771.484375; 9.34166E-5
8777.343750; 1.10546E-4
8783.203125; 1.01650E-4
8789.062500; 1.03488E-4
8794.921875; 9.81728E-5
8800.781250; 9.94215E-5
8806.640625; 1.04846E-4
8812.500000; 1.06775E-4
8818.359375; 1.14349E-4
8824.218750; 1.08675E-4
8830.078125; 9.86401E-5
8835.937500; 9.82250E-5
8841.796875; 9.85328E-5
8847.656250; 1.01718E-4
8853.515625; 1.07837E-4
8859.375000; 1.10937E-4
8865.234375; 1.09069E-4
8871.093750; 1.05951E-4
8876.953125; 1.12928E-4
8882.812500; 1.12927E-4
8888.671875; 1.13069E-4
8894.531250; 1.02005E-4
8900.390625; 1.06191E-4
8906.250000; 1.18158E-4
8912.109375; 1.20392E-4
8917.968750; 1.02978E-4
8923.828125; 9.57145E-5
8929.687500; 1.02912E-4
8935.546875; 9.88698E-5
8941.406250; 1.11333E-4
8947.265625; 1.06234E-4
8953.125000; 1.02347E-4
8958.984375; 1.02027E-4
8964.843750; 1.04199E-4
8970.703125; 1.02956E-4
8976.562500; 8.63249E-5
8982.421875; 9.66701E-5
8988.281250; 9.18933E-5
8994.140625; 8.60979E-5
9000.000000; 9.58704E-5
9005.859375; 1.04945E-4
9011.718750; 9.48422E-5
9017.578125; 9.84084E-5
9023.437500; 1.02956E-4
9029.296875; 1.08433E-4
9035.156250; 1.09437E-4
9041.015625; 9.71571E-5
9046.875000; 9.36202E-5
9052.734375; 1.20958E-4
9058.593750; 1.10615E-4
9064.453125; 9.87122E-5
9070.312500; 9.97414E-5
9076.171875; 9.67620E-5
9082.031250; 9.74632E-5
9087.890625; 1.05272E-4
9093.750000; 1.11803E-4
9099.609375; 9.84604E-5
9105.468750; 9.47066E-5
9111.328125; 1.07578E-4
9117.187500; 1.03915E-4
9123.046875; 1.02796E-4
9128.906250; 1.03819E-4
9134.765625; 1.04864E-4
9140.625000; 1.12505E-4
9146.484375; 1.10479E-4
9152.343750; 1.04137E-4
9158.203125; 1.04420E-4
9164.062500; 1.05169E-4
9169.921875; 1.03683E-4
9175.781250; 9.50177E-5
9181.640625; 9.96910E-5
9187.500000; 9.66906E-5
9193.359375; 9.93979E-5
9199.218750; 1.06577E-4
9205.078125; 1.09436E-4
9210.937500; 1.05065E-4
9216.796875; 1.05007E-4
9222.656250; 1.14472E-4
9228.515625; 1.11364E-4
9234.375000; 9.88407E-5
9240.234375; 9.61425E-5
9246.093750; 8.88183E-5
9251.953125; 8.71729E-5
9257.812500; 9.82406E-5
9263.671875; 1.02789E-4
9269.531250; 1.05263E-4
9275.390625; 9.86908E-5
9281.250000; 9.88487E-5
9287.109375; 1.02542E-4
9292.968750; 1.02039E-4
9298.828125; 1.06233E-4
9304.687500; 1.05139E-4
9310.546875; 1.01496E-4
9316.406250; 9.56731E-5
9322.265625; 1.01073E-4
9328.125000; 1.03500E-4
9333.984375; 1.05461E-4
9339.843750; 1.04736E-4
9345.703125; 1.04859E-4
9351.562500; 1.18325E-4
9357.421875; 1.14669E-4
9363.281250; 1.01407E-4
9369.140625; 1.01396E-4
9375.000000; 1.03696E-4
9380.859375; 9.94261E-5
9386.718750; 1.01031E-4
9392.578125; 1.01327E-4
9398.437500; 9.10098E-5
9404.296875; 9.39960E-5
9410.156250; 9.89670E-5
9416.015625; 1.01042E-4
9421.875000; 1.11505E-4
9427.734375; 1.05186E-4
9433.593750; 9.32877E-5
9439.453125; 1.03155E-4
9445.312500; 9.86617E-5
9451.171875; 9.68897E-5
9457.031250; 1.05178E-4
9462.890625; 1.00817E-4
9468.750000; 9.27813E-5
9474.609375; 9.30300E-5
9480.468750; 1.00458E-4
9486.328125; 9.96791E-5
9492.187500; 8.15832E-5
9498.046875; 8.97746E-5
9503.906250; 9.64421E-5
9509.765625; 1.04331E-4
9515.625000; 1.13286E-4
9521.484375; 1.03394E-4
9527.343750; 1.08755E-4
9533.203125; 1.14651E-4
9539.062500; 1.12772E-4
9544.921875; 1.19370E-4
9550.781250; 1.18397E-4
9556.640625; 9.99921E-5
9562.500000; 9.60727E-5
9568.359375; 1.10898E-4
9574.218750; 1.04224E-4
9580.078125; 1.00941E-4
9585.937500; 1.00829E-4
9591.796875; 9.80269E-5
9597.656250; 1.00441E-4
9603.515625; 1.11296E-4
9609.375000; 1.00610E-4
9615.234375; 1.01748E-4
9621.093750; 1.02873E-4
9626.953125; 1.02866E-4
9632.812500; 1.02368E-4
9638.671875; 1.04331E-4
9644.531250; 9.95415E-5
9650.390625; 8.95773E-5
9656.250000; 9.04570E-5
9662.109375; 8.61739E-5
9667.968750; 9.97031E-5
9673.828125; 1.04754E-4
9679.687500; 1.11011E-4
9685.546875; 1.10044E-4
9691.406250; 1.11245E-4
9697.265625; 1.03285E-4
9703.125000; 9.99137E-5
9708.984375; 1.05819E-4
9714.843750; 1.09104E-4
9720.703125; 1.07033E-4
9726.562500; 9.86155E-5
9732.421875; 1.04863E-4
9738.281250; 1.07958E-4
9744.140625; 1.01559E-4
9750.000000; 1.05413E-4
9755.859375; 1.01584E-4
9761.718750; 9.91329E-5
9767.578125; 9.88234E-5
9773.437500; 9.93321E-5
9779.296875; 1.13533E-4
9785.156250; 1.15811E-4
9791.015625; 1.11408E-4
9796.875000; 1.04271E-4
9802.734375; 1.07049E-4
9808.593750; 1.14591E-4
9814.453125; 1.00591E-4
9820.312500; 1.00435E-4
9826.171875; 1.02952E-4
9832.031250; 1.06495E-4
9837.890625; 1.05655E-4
9843.750000; 1.10955E-4
9849.609375; 1.00632E-4
9855.468750; 9.69738E-5
9861.328125; 9.44661E-5
9867.187500; 9.63333E-5
9873.046875; 1.01534E-4
9878.906250; 1.03334E-4
9884.765625; 9.72285E-5
9890.625000; 1.02820E-4
9896.484375; 1.06664E-4
9902.343750; 1.06923E-4
9908.203125; 1.03253E-4
9914.062500; 1.07687E-4
9919.921875; 1.00316E-4
9925.781250; 1.07984E-4
9931.640625; 1.14635E-4
9937.500000; 1.04997E-4
9943.359375; 1.06929E-4
9949.218750; 1.04592E-4
9955.078125; 1.07980E-4
9960.937500; 1.06348E-4
9966.796875; 1.02512E-4
9972.656250; 9.88036E-5
9978.515625; 9.63897E-5
9984.375000; 1.00990E-4
9990.234375; 1.04331E-4
9996.093750; 1.09637E-4
10001.953125; 9.80214E-5
10007.812500; 1.01056E-4
10013.671875; 1.07586E-4
10019.531250; 1.04603E-4
10025.390625; 1.08532E-4
10031.250000; 1.03950E-4
10037.109375; 9.34795E-5
10042.968750; 9.86482E-5
10048.828125; 9.92473E-5
10054.687500; 9.71622E-5
10060.546875; 1.04522E-4
10066.406250; 9.66893E-5
10072.265625; 9.36729E-5
10078.125000; 1.06410E-4
10083.984375; 1.09271E-4
10089.843750; 1.05280E-4
10095.703125; 9.98975E-5
10101.562500; 1.03084E-4
10107.421875; 1.07263E-4
10113.281250; 1.08326E-4
10119.140625; 1.02937E-4
10125.000000; 1.01837E-4
10130.859375; 1.08982E-4
10136.718750; 1.02580E-4
10142.578125; 1.01924E-4
10148.437500; 1.10750E-4
10154.296875; 1.11177E-4
10160.156250; 1.03689E-4
10166.015625; 1.03066E-4
10171.875000; 9.99750E-5
10177.734375; 1.03152E-4
10183.593750; 9.99334E-5
10189.453125; 9.00649E-5
10195.312500; 9.44255E-5
10201.171875; 1.00974E-4
10207.031250; 1.02977E-4
10212.890625; 1.12591E-4
10218.750000; 1.13480E-4
10224.609375; 9.79000E-5
10230.468750; 9.30630E-5
10236.328125; 1.03022E-4
10242.187500; 9.81745E-5
10248.046875; 1.02280E-4
10253.906250; 1.04742E-4
10259.765625; 9.21767E-5
10265.625000; 9.63055E-5
10271.484375; 9.62998E-5
10277.343750; 9.68327E-5
10283.203125; 8.62785E-5
10289.062500; 1.00325E-4
10294.921875; 1.11199E-4
10300.781250; 1.04429E-4
10306.640625; 1.00776E-4
10312.500000; 1.04510E-4
10318.359375; 1.04930E-4
10324.218750; 9.68574E-5
10330.078125; 1.00286E-4
10335.937500; 9.35989E-5
10341.796875; 9.18648E-5
10347.656250; 9.74213E-5
10353.515625; 1.03189E-4
10359.375000; 1.08679E-4
10365.234375; 1.06500E-4
10371.093750; 1.04060E-4
10376.953125; 1.04221E-4
10382.812500; 9.82932E-5
10388.671875; 1.00261E-4
10394.531250; 1.01952E-4
10400.390625; 1.02939E-4
10406.250000; 9.70991E-5
10412.109375; 8.93357E-5
10417.968750; 9.64228E-5
10423.828125; 9.97778E-5
10429.687500; 1.03867E-4
10435.546875; 1.12936E-4
10441.406250; 1.03114E-4
10447.265625; 9.51396E-5
10453.125000; 9.88691E-5
10458.984375; 8.82238E-5
10464.843750; 9.74973E-5
10470.703125; 1.05721E-4
10476.562500; 1.12541E-4
10482.421875; 1.06884E-4
10488.281250; 1.03274E-4
10494.140625; 9.55791E-5
10500.000000; 9.25105E-5
10505.859375; 9.33442E-5
10511.718750; 9.18271E-5
10517.578125; 1.06698E-4
10523.437500; 1.04139E-4
10529.296875; 9.12681E-5
10535.156250; 8.53951E-5
10541.015625; 9.44100E-5
10546.875000; 1.03523E-4
10552.734375; 1.06457E-4
10558.593750; 9.53514E-5
10564.453125; 8.76310E-5
10570.312500; 1.00673E-4
10576.171875; 1.00372E-4
10582.031250; 9.33565E-5
10587.890625; 8.46661E-5
10593.750000; 9.21694E-5
10599.609375; 9.45158E-5
10605.468750; 1.02432E-4
10611.328125; 1.09251E-4
10617.187500; 9.72640E-5
10623.046875; 9.32668E-5
10628.906250; 9.22297E-5
10634.765625; 1.06144E-4
10640.625000; 1.08506E-4
10646.484375; 1.04522E-4
10652.343750; 9.50393E-5
10658.203125; 1.06066E-4
10664.062500; 1.15263E-4
10669.921875; 1.08886E-4
10675.781250; 1.04755E-4
10681.640625; 9.68091E-5
10687.500000; 1.04606E-4
10693.359375; 9.64988E-5
10699.218750; 9.40825E-5
10705.078125; 1.02680E-4
10710.937500; 1.01487E-4
10716.796875; 9.34032E-5
10722.656250; 9.25663E-5
10728.515625; 9.71220E-5
10734.375000; 1.08409E-4
10740.234375; 1.04435E-4
10746.093750; 9.73016E-5
10751.953125; 1.03468E-4
10757.812500; 1.04263E-4
10763.671875; 9.95422E-5
10769.531250; 1.02921E-4
10775.390625; 1.10207E-4
10781.250000; 1.12084E-4
10787.109375; 9.98997E-5
10792.968750; 9.29604E-5
10798.828125; 9.22262E-5
10804.687500; 9.82219E-5
10810.546875; 9.28572E-5
10816.406250; 1.03760E-4
10822.265625; 1.00216E-4
10828.125000; 1.00877E-4
10833.984375; 1.09755E-4
10839.843750; 9.50382E-5
10845.703125; 1.00011E-4
10851.562500; 1.18860E-4
10857.421875; 1.09456E-4
10863.281250; 9.29837E-5
10869.140625; 9.43039E-5
10875.000000; 9.96169E-5
10880.859375; 1.01997E-4
10886.718750; 1.04848E-4
10892.578125; 9.77356E-5
10898.437500; 1.01086E-4
10904.296875; 9.72025E-5
10910.156250; 1.13158E-4
10916.015625; 1.09887E-4
10921.875000; 8.81491E-5
10927.734375; 8.44155E-5
10933.593750; 1.03009E-4
10939.453125; 9.62520E-5
10945.312500; 8.19336E-5
10951.171875; 9.83744E-5
10957.031250; 1.08440E-4
10962.890625; 1.00919E-4
10968.750000; 1.02673E-4
10974.609375; 1.05437E-4
10980.468750; 1.06108E-4
10986.328125; 9.69383E-5
10992.187500; 1.04804E-4
10998.046875; 1.09326E-4
11003.906250; 1.03649E-4
11009.765625; 1.15175E-4
11015.625000; 1.15479E-4
11021.484375; 1.06021E-4
11027.343750; 1.13845E-4
11033.203125; 1.07084E-4
11039.062500; 9.69666E-5
11044.921875; 9.14861E-5
11050.781250; 9.17598E-5
11056.640625; 9.68647E-5
11062.500000; 9.95046E-5
11068.359375; 1.07539E-4
11074.218750; 1.04473E-4
11080.078125; 9.99480E-5
11085.937500; 9.87681E-5
11091.796875; 1.01214E-4
11097.656250; 1.00420E-4
11103.515625; 9.70425E-5
11109.375000; 1.04535E-4
11115.234375; 1.05504E-4
11121.093750; 9.26557E-5
11126.953125; 1.07847E-4
11132.812500; 1.12123E-4
11138.671875; 1.02929E-4
11144.531250; 1.00229E-4
11150.390625; 1.09194E-4
11156.250000; 1.07087E-4
11162.109375; 9.64657E-5
11167.968750; 9.81063E-5
11173.828125; 1.01879E-4
11179.687500; 1.00646E-4
11185.546875; 1.12213E-4
11191.406250; 1.10554E-4
11197.265625; 1.05571E-4
11203.125000; 1.07353E-4
11208.984375; 1.08753E-4
11214.843750; 1.05958E-4
11220.703125; 1.17176E-4
11226.562500; 1.01860E-4
11232.421875; 9.38043E-5
11238.281250; 9.93315E-5
11244.140625; 1.02269E-4
11250.000000; 1.05479E-4
11255.859375; 1.00201E-4
11261.718750; 9.73991E-5
11267.578125; 1.03200E-4
11273.437500; 1.01119E-4
11279.296875; 1.04773E-4
11285.156250; 1.01491E-4
11291.015625; 1.16472E-4
11296.875000; 1.03742E-4
11302.734375; 9.49477E-5
11308.593750; 1.06073E-4
11314.453125; 1.00023E-4
11320.312500; 9.13592E-5
11326.171875; 1.05268E-4
11332.031250; 1.06893E-4
11337.890625; 1.13692E-4
11343.750000; 1.10086E-4
11349.609375; 1.07828E-4
11355.468750; 1.10853E-4
11361.328125; 9.95037E-5
11367.187500; 9.07387E-5
11373.046875; 9.90786E-5
11378.906250; 9.31091E-5
11384.765625; 7.90147E-5
11390.625000; 9.66326E-5
11396.484375; 9.39324E-5
11402.343750; 1.00494E-4
11408.203125; 1.11662E-4
11414.062500; 1.26907E-4
11419.921875; 1.25792E-4
11425.781250; 9.78388E-5
11431.640625; 9.01706E-5
11437.500000; 9.71444E-5
11443.359375; 1.09173E-4
11449.218750; 1.12809E-4
11455.078125; 1.15522E-4
11460.937500; 1.15370E-4
11466.796875; 1.04893E-4
11472.656250; 1.04460E-4
11478.515625; 1.05433E-4
11484.375000; 1.11964E-4
11490.234375; 1.10179E-4
11496.093750; 1.12492E-4
11501.953125; 1.03747E-4
11507.812500; 1.02213E-4
11513.671875; 1.10744E-4
11519.531250; 1.12392E-4
11525.390625; 1.07686E-4
11531.250000; 1.06528E-4
11537.109375; 9.63880E-5
11542.968750; 1.01912E-4
11548.828125; 1.05634E-4
11554.687500; 1.04882E-4
11560.546875; 1.03876E-4
11566.406250; 1.08660E-4
11572.265625; 1.10757E-4
11578.125000; 1.03936E-4
11583.984375; 9.55482E-5
11589.843750; 8.80324E-5
11595.703125; 9.19485E-5
11601.562500; 1.06889E-4
11607.421875; 1.03494E-4
11613.281250; 9.50974E-5
11619.140625; 1.05788E-4
11625.000000; 9.92725E-5
11630.859375; 9.06742E-5
11636.718750; 9.45425E-5
11642.578125; 1.07038E-4
11648.437500; 1.10178E-4
11654.296875; 1.09895E-4
11660.156250; 1.12740E-4
11666.015625; 1.14553E-4
11671.875000; 1.05212E-4
11677.734375; 9.99289E-5
11683.593750; 1.13369E-4
11689.453125; 1.21983E-4
11695.312500; 1.01628E-4
11701.171875; 9.61369E-5
11707.031250; 9.84713E-5
11712.890625; 1.06243E-4
11718.750000; 1.05326E-4
11724.609375; 1.05496E-4
11730.468750; 1.02585E-4
11736.328125; 1.03391E-4
11742.187500; 1.11593E-4
11748.046875; 1.09300E-4
11753.906250; 1.18891E-4
11759.765625; 1.09797E-4
11765.625000; 9.75788E-5
11771.484375; 9.84035E-5
11777.343750; 1.04549E-4
11783.203125; 1.02967E-4
11789.062500; 1.10482E-4
11794.921875; 1.05184E-4
11800.781250; 1.02820E-4
11806.640625; 9.72279E-5
11812.500000; 9.54832E-5
11818.359375; 9.37081E-5
11824.218750; 1.01571E-4
11830.078125; 9.94233E-5
11835.937500; 1.01112E-4
11841.796875; 1.02953E-4
11847.656250; 1.03100E-4
11853.515625; 1.01085E-4
11859.375000; 9.16968E-5
11865.234375; 9.94506E-5
11871.093750; 1.16212E-4
11876.953125; 1.16950E-4
11882.812500; 1.06147E-4
11888.671875; 1.07771E-4
11894.531250; 1.02847E-4
11900.390625; 9.89181E-5
11906.250000; 9.46844E-5
11912.109375; 9.87268E-5
11917.968750; 1.09197E-4
11923.828125; 1.01065E-4
11929.687500; 1.01027E-4
11935.546875; 9.31792E-5
11941.406250; 9.64609E-5
11947.265625; 9.84847E-5
11953.125000; 1.01021E-4
11958.984375; 9.85989E-5
11964.843750; 1.00918E-4
11970.703125; 8.58971E-5
11976.562500; 9.03168E-5
11982.421875; 8.78792E-5
11988.281250; 1.00613E-4
11994.140625; 1.05819E-4
12000.000000; 1.01977E-4
12005.859375; 9.36144E-5
12011.718750; 8.51860E-5
12017.578125; 9.69692E-5
12023.437500; 1.06235E-4
12029.296875; 9.70995E-5
12035.156250; 8.96869E-5
12041.015625; 1.04235E-4
12046.875000; 9.83175E-5
12052.734375; 8.90580E-5
12058.593750; 9.32588E-5
12064.453125; 9.80927E-5
12070.312500; 9.86777E-5
12076.171875; 1.02369E-4
12082.031250; 1.01408E-4
12087.890625; 1.03617E-4
12093.750000; 1.03171E-4
12099.609375; 1.00648E-4
12105.468750; 9.77667E-5
12111.328125; 1.01220E-4
12117.187500; 1.04768E-4
12123.046875; 9.96936E-5
12128.906250; 1.05526E-4
12134.765625; 1.00526E-4
12140.625000; 9.73468E-5
12146.484375; 1.02386E-4
12152.343750; 1.06554E-4
12158.203125; 1.03182E-4
12164.062500; 9.89365E-5
12169.921875; 1.07574E-4
12175.781250; 1.10148E-4
12181.640625; 1.08315E-4
12187.500000; 1.04476E-4
12193.359375; 9.62891E-5
12199.218750; 1.06247E-4
12205.078125; 1.05563E-4
12210.937500; 9.74705E-5
12216.796875; 8.56017E-5
12222.656250; 8.94393E-5
12228.515625; 1.05543E-4
12234.375000; 1.17757E-4
12240.234375; 1.06284E-4
12246.093750; 9.68061E-5
12251.953125; 1.00724E-4
12257.812500; 9.46944E-5
12263.671875; 9.09785E-5
12269.531250; 9.56364E-5
12275.390625; 1.05304E-4
12281.250000; 1.09636E-4
12287.109375; 1.09671E-4
12292.968750; 1.08728E-4
12298.828125; 9.70066E-5
12304.687500; 9.63146E-5
12310.546875; 1.04296E-4
12316.406250; 9.72715E-5
12322.265625; 9.33344E-5
12328.125000; 9.68686E-5
12333.984375; 1.01625E-4
12339.843750; 9.21136E-5
12345.703125; 9.33911E-5
12351.562500; 1.00626E-4
12357.421875; 9.92431E-5
12363.281250; 9.80322E-5
12369.140625; 9.65633E-5
12375.000000; 1.00024E-4
12380.859375; 1.07660E-4
12386.718750; 1.00197E-4
12392.578125; 9.87314E-5
12398.437500; 1.03931E-4
12404.296875; 1.04408E-4
12410.156250; 9.28802E-5
12416.015625; 8.52591E-5
12421.875000; 1.00920E-4
12427.734375; 1.04144E-4
12433.593750; 1.04769E-4
12439.453125; 9.92487E-5
12445.312500; 1.11026E-4
12451.171875; 1.14752E-4
12457.031250; 1.06561E-4
12462.890625; 1.17730E-4
12468.750000; 1.09621E-4
12474.609375; 8.77871E-5
12480.468750; 9.62914E-5
12486.328125; 9.74778E-5
12492.187500; 9.21627E-5
12498.046875; 1.02259E-4
12503.906250; 1.20016E-4
12509.765625; 1.11019E-4
12515.625000; 9.20859E-5
12521.484375; 9.86066E-5
12527.343750; 1.06685E-4
12533.203125; 1.00815E-4
12539.062500; 1.00425E-4
12544.921875; 1.06791E-4
12550.781250; 1.15759E-4
12556.640625; 1.11418E-4
12562.500000; 1.02895E-4
12568.359375; 1.04486E-4
12574.218750; 1.02699E-4
12580.078125; 9.76347E-5
12585.937500; 1.02567E-4
12591.796875; 1.08801E-4
12597.656250; 1.10888E-4
12603.515625; 9.92815E-5
12609.375000; 8.82613E-5
12615.234375; 9.88313E-5
12621.093750; 1.16917E-4
12626.953125; 1.18030E-4
12632.812500; 9.92903E-5
12638.671875; 1.01740E-4
12644.531250; 9.68956E-5
12650.390625; 1.08808E-4
12656.250000; 1.01753E-4
12662.109375; 1.05060E-4
12667.968750; 1.03554E-4
12673.828125; 9.46347E-5
12679.687500; 1.00078E-4
12685.546875; 1.02803E-4
12691.406250; 9.38667E-5
12697.265625; 9.59788E-5
12703.125000; 1.09204E-4
12708.984375; 1.14949E-4
12714.843750; 1.03365E-4
12720.703125; 1.06048E-4
12726.562500; 1.01182E-4
12732.421875; 9.06430E-5
12738.281250; 9.20779E-5
12744.140625; 1.04779E-4
12750.000000; 9.99931E-5
12755.859375; 9.18001E-5
12761.718750; 9.74023E-5
12767.578125; 1.09332E-4
12773.437500; 1.09414E-4
12779.296875; 9.70067E-5
12785.156250; 9.75133E-5
12791.015625; 9.90025E-5
12796.875000; 9.89818E-5
12802.734375; 1.06509E-4
12808.593750; 9.70151E-5
12814.453125; 9.25507E-5
12820.312500; 1.00466E-4
12826.171875; 1.00715E-4
12832.031250; 1.01847E-4
12837.890625; 1.11253E-4
12843.750000; 1.04489E-4
12849.609375; 1.05327E-4
12855.468750; 1.05293E-4
12861.328125; 1.03272E-4
12867.187500; 1.10226E-4
12873.046875; 1.06741E-4
12878.906250; 9.77099E-5
12884.765625; 9.59648E-5
12890.625000; 9.23853E-5
12896.484375; 1.02563E-4
12902.343750; 1.07428E-4
12908.203125; 1.03456E-4
12914.062500; 9.94522E-5
12919.921875; 9.59019E-5
12925.781250; 9.21981E-5
12931.640625; 9.22632E-5
12937.500000; 9.96726E-5
12943.359375; 1.01710E-4
12949.218750; 1.07459E-4
12955.078125; 1.05689E-4
12960.937500; 1.04403E-4
12966.796875; 1.02880E-4
12972.656250; 8.43818E-5
12978.515625; 9.43037E-5
12984.375000; 1.02280E-4
12990.234375; 1.13700E-4
12996.093750; 1.19813E-4
13001.953125; 1.10403E-4
13007.812500; 1.03733E-4
13013.671875; 1.11225E-4
13019.531250; 8.61742E-5
13025.390625; 9.59259E-5
13031.250000; 1.00451E-4
13037.109375; 9.86349E-5
13042.968750; 1.04294E-4
13048.828125; 1.01785E-4
13054.687500; 1.07798E-4
13060.546875; 1.02512E-4
13066.406250; 9.01626E-5
13072.265625; 9.65163E-5
13078.125000; 1.06188E-4
13083.984375; 1.02497E-4
13089.843750; 9.58907E-5
13095.703125; 9.71012E-5
13101.562500; 9.42369E-5
13107.421875; 9.07539E-5
13113.281250; 9.09547E-5
13119.140625; 1.01324E-4
13125.000000; 1.11447E-4
13130.859375; 1.01904E-4
13136.718750; 9.16822E-5
13142.578125; 9.39349E-5
13148.437500; 9.58527E-5
13154.296875; 1.07343E-4
13160.156250; 1.06673E-4
13166.015625; 1.09421E-4
13171.875000; 1.03952E-4
13177.734375; 9.49552E-5
13183.593750; 1.00430E-4
13189.453125; 9.88761E-5
13195.312500; 1.09279E-4
13201.171875; 1.12923E-4
13207.031250; 1.06745E-4
13212.890625; 1.01567E-4
13218.750000; 1.11964E-4
13224.609375; 1.10913E-4
13230.468750; 9.38206E-5
13236.328125; 1.05076E-4
13242.187500; 1.06242E-4
13248.046875; 1.17802E-4
13253.906250; 1.24648E-4
13259.765625; 1.13809E-4
13265.625000; 1.03065E-4
13271.484375; 1.06105E-4
13277.343750; 1.05363E-4
13283.203125; 9.62154E-5
13289.062500; 1.01827E-4
13294.921875; 9.21776E-5
13300.781250; 9.00955E-5
13306.640625; 9.67008E-5
13312.500000; 9.04341E-5
13318.359375; 1.02067E-4
13324.218750; 1.00805E-4
13330.078125; 1.02814E-4
13335.937500; 9.62470E-5
13341.796875; 9.79347E-5
13347.656250; 1.05484E-4
13353.515625; 1.00455E-4
13359.375000; 9.18328E-5
13365.234375; 8.67738E-5
13371.093750; 9.01204E-5
13376.953125; 9.42083E-5
13382.812500; 9.51985E-5
13388.671875; 1.09530E-4
13394.531250; 1.23137E-4
13400.390625; 1.12129E-4
13406.250000; 9.45920E-5
13412.109375; 9.41486E-5
13417.968750; 9.97628E-5
13423.828125; 9.71240E-5
13429.687500; 9.28012E-5
13435.546875; 9.60865E-5
13441.406250; 1.04333E-4
13447.265625; 1.03090E-4
13453.125000; 1.01445E-4
13458.984375; 9.30532E-5
13464.843750; 8.92228E-5
13470.703125; 9.82717E-5
13476.562500; 1.01193E-4
13482.421875; 9.92794E-5
13488.281250; 1.00136E-4
13494.140625; 9.43878E-5
13500.000000; 9.28047E-5
13505.859375; 9.04169E-5
13511.718750; 9.77217E-5
13517.578125; 1.04065E-4
13523.437500; 1.03022E-4
13529.296875; 9.99750E-5
13535.156250; 9.65790E-5
13541.015625; 1.06868E-4
13546.875000; 9.83721E-5
13552.734375; 1.00129E-4
13558.593750; 1.04701E-4
13564.453125; 1.03162E-4
13570.312500; 9.71213E-5
13576.171875; 9.92141E-5
13582.031250; 9.39770E-5
13587.890625; 9.35770E-5
13593.750000; 9.65270E-5
13599.609375; 1.02054E-4
13605.468750; 1.04055E-4
13611.328125; 1.08635E-4
13617.187500; 9.85426E-5
13623.046875; 9.52123E-5
13628.906250; 1.15702E-4
13634.765625; 1.10084E-4
13640.625000; 1.05655E-4
13646.484375; 9.54771E-5
13652.343750; 9.61034E-5
13658.203125; 9.92569E-5
13664.062500; 1.03568E-4
13669.921875; 9.70607E-5
13675.781250; 9.75113E-5
13681.640625; 9.61315E-5
13687.500000; 1.02705E-4
13693.359375; 1.01343E-4
13699.218750; 9.51330E-5
13705.078125; 9.26639E-5
13710.937500; 1.03952E-4
13716.796875; 1.13443E-4
13722.656250; 1.03606E-4
13728.515625; 9.83956E-5
13734.375000; 9.37473E-5
13740.234375; 9.79716E-5
13746.093750; 1.03079E-4
13751.953125; 1.05954E-4
13757.812500; 1.03184E-4
13763.671875; 1.01288E-4
13769.531250; 1.04920E-4
13775.390625; 1.10605E-4
13781.250000; 1.09241E-4
13787.109375; 1.04373E-4
13792.968750; 1.02120E-4
13798.828125; 9.42023E-5
13804.687500; 1.01663E-4
13810.546875; 9.67901E-5
13816.406250; 1.00708E-4
13822.265625; 1.04706E-4
13828.125000; 1.10201E-4
13833.984375; 1.05764E-4
13839.843750; 1.01656E-4
13845.703125; 1.01053E-4
13851.562500; 9.97778E-5
13857.421875; 1.07926E-4
13863.281250; 1.02729E-4
13869.140625; 1.02957E-4
13875.000000; 1.00903E-4
13880.859375; 9.31657E-5
13886.718750; 9.87207E-5
13892.578125; 9.34074E-5
13898.437500; 1.02013E-4
13904.296875; 9.46002E-5
13910.156250; 9.71876E-5
13916.015625; 1.12698E-4
13921.875000; 1.03467E-4
13927.734375; 1.00424E-4
13933.593750; 1.07859E-4
13939.453125; 1.09838E-4
13945.312500; 1.05345E-4
13951.171875; 9.76662E-5
13957.031250; 9.87931E-5
13962.890625; 9.97055E-5
13968.750000; 9.16680E-5
13974.609375; 8.83447E-5
13980.468750; 1.03024E-4
13986.328125; 1.05390E-4
13992.187500; 8.98280E-5
13998.046875; 9.01193E-5
14003.906250; 9.78755E-5
14009.765625; 8.87673E-5
14015.625000; 9.52842E-5
14021.484375; 1.05472E-4
14027.343750; 1.11236E-4
14033.203125; 9.77531E-5
14039.062500; 1.03957E-4
14044.921875; 1.04433E-4
14050.781250; 1.00845E-4
14056.640625; 1.06354E-4
14062.500000; 1.00040E-4
14068.359375; 9.97969E-5
14074.218750; 1.09115E-4
14080.078125; 1.11546E-4
14085.937500; 1.06490E-4
14091.796875; 9.80535E-5
14097.656250; 1.03083E-4
14103.515625; 9.60486E-5
14109.375000; 1.09236E-4
14115.234375; 1.02588E-4
14121.093750; 1.00176E-4
14126.953125; 1.01145E-4
14132.812500; 1.08891E-4
14138.671875; 1.13072E-4
14144.531250; 1.02854E-4
14150.390625; 1.00381E-4
14156.250000; 1.04766E-4
14162.109375; 1.20917E-4
14167.968750; 1.02080E-4
14173.828125; 1.02453E-4
14179.687500; 1.02377E-4
14185.546875; 9.52996E-5
14191.406250; 9.42053E-5
14197.265625; 9.86007E-5
14203.125000; 1.12132E-4
14208.984375; 1.07234E-4
14214.843750; 1.08683E-4
14220.703125; 1.05971E-4
14226.562500; 9.04937E-5
14232.421875; 9.89347E-5
14238.281250; 1.11990E-4
14244.140625; 1.00914E-4
14250.000000; 1.01108E-4
14255.859375; 9.62750E-5
14261.718750; 1.06387E-4
14267.578125; 1.03489E-4
14273.437500; 9.82932E-5
14279.296875; 9.87750E-5
14285.156250; 1.03916E-4
14291.015625; 1.00781E-4
14296.875000; 9.74680E-5
14302.734375; 1.02462E-4
14308.593750; 1.06146E-4
14314.453125; 8.52813E-5
14320.312500; 9.20045E-5
14326.171875; 1.00070E-4
14332.031250; 8.76861E-5
14337.890625; 9.01516E-5
14343.750000; 8.99493E-5
14349.609375; 9.41409E-5
14355.468750; 1.06872E-4
14361.328125; 1.08063E-4
14367.187500; 9.67829E-5
14373.046875; 8.92044E-5
14378.906250; 9.57599E-5
14384.765625; 1.07291E-4
14390.625000; 9.96497E-5
14396.484375; 1.01856E-4
14402.343750; 9.94973E-5
14408.203125; 9.21576E-5
14414.062500; 8.36326E-5
14419.921875; 9.46061E-5
14425.781250; 1.07268E-4
14431.640625; 9.45445E-5
14437.500000; 9.28446E-5
14443.359375; 9.61656E-5
14449.218750; 9.59511E-5
14455.078125; 9.70666E-5
14460.937500; 9.39698E-5
14466.796875; 9.80874E-5
14472.656250; 9.39349E-5
14478.515625; 1.01374E-4
14484.375000; 1.00073E-4
14490.234375; 1.01245E-4
14496.093750; 1.00510E-4
14501.953125; 1.03079E-4
14507.812500; 1.00926E-4
14513.671875; 9.19580E-5
14519.531250; 9.47264E-5
14525.390625; 1.03436E-4
14531.250000; 1.00667E-4
14537.109375; 9.65056E-5
14542.968750; 1.03550E-4
14548.828125; 1.14562E-4
14554.687500; 1.08789E-4
14560.546875; 9.92662E-5
14566.406250; 9.15758E-5
14572.265625; 9.91288E-5
14578.125000; 1.01532E-4
14583.984375; 1.02875E-4
14589.843750; 1.05487E-4
14595.703125; 9.90974E-5
14601.562500; 9.84710E-5
14607.421875; 1.05895E-4
14613.281250; 1.00012E-4
14619.140625; 9.31412E-5
14625.000000; 8.83914E-5
14630.859375; 8.29372E-5
14636.718750; 9.85198E-5
14642.578125; 9.66232E-5
14648.437500; 9.84943E-5
14654.296875; 9.77627E-5
14660.156250; 1.02576E-4
14666.015625; 1.02354E-4
14671.875000; 9.45350E-5
14677.734375; 1.01851E-4
14683.593750; 9.71201E-5
14689.453125; 9.16944E-5
14695.312500; 9.36998E-5
14701.171875; 1.03871E-4
14707.031250; 1.05452E-4
14712.890625; 9.99891E-5
14718.750000; 8.96823E-5
14724.609375; 9.00711E-5
14730.468750; 9.22669E-5
14736.328125; 9.10841E-5
14742.187500; 9.03762E-5
14748.046875; 8.91057E-5
14753.906250; 8.92617E-5
14759.765625; 9.44240E-5
14765.625000; 1.00811E-4
14771.484375; 9.76268E-5
14777.343750; 1.10352E-4
14783.203125; 1.13121E-4
14789.062500; 1.01089E-4
14794.921875; 9.77616E-5
14800.781250; 1.01080E-4
14806.640625; 1.07111E-4
14812.500000; 1.08243E-4
14818.359375; 1.16015E-4
14824.218750; 9.90382E-5
14830.078125; 9.22164E-5
14835.937500; 9.84252E-5
14841.796875; 1.02362E-4
14847.656250; 1.04963E-4
14853.515625; 9.65468E-5
14859.375000; 1.00664E-4
14865.234375; 9.66098E-5
14871.093750; 9.44311E-5
14876.953125; 9.84670E-5
14882.812500; 9.82135E-5
14888.671875; 9.93696E-5
14894.531250; 9.27917E-5
14900.390625; 1.00505E-4
14906.250000; 9.56093E-5
14912.109375; 8.72038E-5
14917.968750; 9.06629E-5
14923.828125; 9.66550E-5
14929.687500; 9.81229E-5
14935.546875; 9.69517E-5
14941.406250; 9.31544E-5
14947.265625; 9.92849E-5
14953.125000; 9.66378E-5
14958.984375; 9.47730E-5
14964.843750; 9.28919E-5
14970.703125; 1.00383E-4
14976.562500; 1.03816E-4
14982.421875; 1.01794E-4
14988.281250; 9.32451E-5
14994.140625; 1.03528E-4
15000.000000; 1.10920E-4
15005.859375; 1.05462E-4
15011.718750; 1.05096E-4
15017.578125; 9.86103E-5
15023.437500; 9.90472E-5
15029.296875; 1.05070E-4
15035.156250; 9.97930E-5
15041.015625; 9.11169E-5
15046.875000; 1.00293E-4
15052.734375; 1.12327E-4
15058.593750; 1.06683E-4
15064.453125; 1.01958E-4
15070.312500; 9.38961E-5
15076.171875; 9.31141E-5
15082.031250; 9.01754E-5
15087.890625; 9.12693E-5
15093.750000; 9.40945E-5
15099.609375; 1.07711E-4
15105.468750; 9.82495E-5
15111.328125; 9.60396E-5
15117.187500; 9.84076E-5
15123.046875; 1.06351E-4
15128.906250; 1.08791E-4
15134.765625; 1.00306E-4
15140.625000; 9.28430E-5
15146.484375; 9.51810E-5
15152.343750; 9.88101E-5
15158.203125; 1.11216E-4
15164.062500; 9.81669E-5
15169.921875; 9.57754E-5
15175.781250; 9.23902E-5
15181.640625; 9.68841E-5
15187.500000; 9.33334E-5
15193.359375; 9.04821E-5
15199.218750; 9.92014E-5
15205.078125; 1.03328E-4
15210.937500; 1.02256E-4
15216.796875; 1.03638E-4
15222.656250; 9.60224E-5
15228.515625; 1.03508E-4
15234.375000; 1.10108E-4
15240.234375; 1.10628E-4
15246.093750; 9.63981E-5
15251.953125; 8.78587E-5
15257.812500; 9.53517E-5
15263.671875; 9.63185E-5
15269.531250; 1.00652E-4
15275.390625; 1.02397E-4
15281.250000; 9.10140E-5
15287.109375; 9.88135E-5
15292.968750; 1.03525E-4
15298.828125; 9.83664E-5
15304.687500; 9.92042E-5
15310.546875; 1.07293E-4
15316.406250; 1.14900E-4
15322.265625; 1.04319E-4
15328.125000; 9.95394E-5
15333.984375; 9.82139E-5
15339.843750; 1.11717E-4
15345.703125; 1.12573E-4
15351.562500; 1.01913E-4
15357.421875; 9.73524E-5
15363.281250; 9.83810E-5
15369.140625; 1.00562E-4
15375.000000; 9.28430E-5
15380.859375; 8.49806E-5
15386.718750; 8.62598E-5
15392.578125; 9.98597E-5
15398.437500; 1.02809E-4
15404.296875; 9.91154E-5
15410.156250; 1.00709E-4
15416.015625; 1.05031E-4
15421.875000; 9.88577E-5
15427.734375; 9.67668E-5
15433.593750; 1.03900E-4
15439.453125; 1.09639E-4
15445.312500; 9.63947E-5
15451.171875; 1.00013E-4
15457.031250; 1.03831E-4
15462.890625; 1.03798E-4
15468.750000; 1.06612E-4
15474.609375; 1.01423E-4
15480.468750; 1.01398E-4
15486.328125; 1.05906E-4
15492.187500; 1.14502E-4
15498.046875; 1.13059E-4
15503.906250; 1.05128E-4
15509.765625; 1.03639E-4
15515.625000; 1.02659E-4
15521.484375; 1.02976E-4
15527.343750; 9.56490E-5
15533.203125; 8.72968E-5
15539.062500; 8.67461E-5
15544.921875; 8.99239E-5
15550.781250; 1.03679E-4
15556.640625; 1.02173E-4
15562.500000; 9.18316E-5
15568.359375; 1.00863E-4
15574.218750; 1.09138E-4
15580.078125; 1.11299E-4
15585.937500; 1.08754E-4
15591.796875; 1.00957E-4
15597.656250; 1.01962E-4
15603.515625; 1.01662E-4
15609.375000; 9.57601E-5
15615.234375; 9.38823E-5
15621.093750; 1.02638E-4
15626.953125; 1.01994E-4
15632.812500; 1.01522E-4
15638.671875; 1.00090E-4
15644.531250; 1.03893E-4
15650.390625; 1.05659E-4
15656.250000; 1.03465E-4
15662.109375; 9.29549E-5
15667.968750; 9.68688E-5
15673.828125; 1.00924E-4
15679.687500; 1.06558E-4
15685.546875; 1.07971E-4
15691.406250; 1.02021E-4
15697.265625; 9.72524E-5
15703.125000; 1.00644E-4
15708.984375; 1.06868E-4
15714.843750; 1.05350E-4
15720.703125; 8.98046E-5
15726.562500; 9.29275E-5
15732.421875; 9.33892E-5
15738.281250; 9.29593E-5
15744.140625; 8.50276E-5
15750.000000; 9.77582E-5
15755.859375; 1.03711E-4
15761.718750; 8.98534E-5
15767.578125; 9.51356E-5
15773.437500; 9.73777E-5
15779.296875; 9.20126E-5
15785.156250; 8.78419E-5
15791.015625; 9.61060E-5
15796.875000; 1.03863E-4
15802.734375; 9.68797E-5
15808.593750; 1.01452E-4
15814.453125; 1.02245E-4
15820.312500; 1.03908E-4
15826.171875; 1.00550E-4
15832.031250; 9.78196E-5
15837.890625; 9.09814E-5
15843.750000; 9.22180E-5
15849.609375; 9.28967E-5
15855.468750; 1.01908E-4
15861.328125; 1.06461E-4
15867.187500; 1.00363E-4
15873.046875; 9.51166E-5
15878.906250; 9.20944E-5
15884.765625; 9.61516E-5
15890.625000; 8.91046E-5
15896.484375; 1.04080E-4
15902.343750; 1.10446E-4
15908.203125; 1.09841E-4
15914.062500; 1.02141E-4
15919.921875; 1.10760E-4
15925.781250; 1.11259E-4
15931.640625; 9.90378E-5
15937.500000; 1.04408E-4
15943.359375; 1.05413E-4
15949.218750; 1.04532E-4
15955.078125; 9.35058E-5
15960.937500; 8.99467E-5
15966.796875; 1.03625E-4
15972.656250; 1.12459E-4
15978.515625; 1.14067E-4
15984.375000; 1.01216E-4
15990.234375; 9.53529E-5
15996.093750; 8.58509E-5
16001.953125; 1.01159E-4
16007.812500; 1.06816E-4
16013.671875; 1.13639E-4
16019.531250; 1.03340E-4
16025.390625; 9.51644E-5
16031.250000; 9.85532E-5
16037.109375; 1.02057E-4
16042.968750; 1.03429E-4
16048.828125; 1.02998E-4
16054.687500; 1.07769E-4
16060.546875; 1.04996E-4
16066.406250; 1.02440E-4
16072.265625; 1.00298E-4
16078.125000; 1.03896E-4
16083.984375; 9.92563E-5
16089.843750; 9.80704E-5
16095.703125; 1.05959E-4
16101.562500; 9.51579E-5
16107.421875; 9.31336E-5
16113.281250; 8.94285E-5
16119.140625; 1.01680E-4
16125.000000; 1.10920E-4
16130.859375; 9.55576E-5
16136.718750; 9.84592E-5
16142.578125; 1.18123E-4
16148.437500; 1.13717E-4
16154.296875; 1.01347E-4
16160.156250; 9.96179E-5
16166.015625; 9.87566E-5
16171.875000; 1.00461E-4
16177.734375; 9.62973E-5
16183.593750; 9.58550E-5
16189.453125; 9.31146E-5
16195.312500; 9.16712E-5
16201.171875; 9.32724E-5
16207.031250; 1.05799E-4
16212.890625; 9.92344E-5
16218.750000; 9.70944E-5
16224.609375; 1.05948E-4
16230.468750; 1.00198E-4
16236.328125; 9.39229E-5
16242.187500; 9.15454E-5
16248.046875; 9.44000E-5
16253.906250; 1.01634E-4
16259.765625; 9.42247E-5
16265.625000; 8.74231E-5
16271.484375; 8.89787E-5
16277.343750; 9.64609E-5
16283.203125; 9.71393E-5
16289.062500; 8.87429E-5
16294.921875; 8.42321E-5
16300.781250; 1.04851E-4
16306.640625; 1.06814E-4
16312.500000; 9.24114E-5
16318.359375; 8.36344E-5
16324.218750; 9.61631E-5
16330.078125; 9.83571E-5
16335.937500; 1.03020E-4
16341.796875; 1.09679E-4
16347.656250; 1.01465E-4
16353.515625; 1.09066E-4
16359.375000; 1.05670E-4
16365.234375; 9.79576E-5
16371.093750; 9.17122E-5
16376.953125; 9.08180E-5
16382.812500; 9.92322E-5
16388.671875; 9.85532E-5
16394.531250; 9.52049E-5
16400.390625; 1.09213E-4
16406.250000; 1.02202E-4
16412.109375; 9.16862E-5
16417.968750; 9.80392E-5
16423.828125; 1.04097E-4
16429.687500; 1.04504E-4
16435.546875; 9.71277E-5
16441.406250; 8.66830E-5
16447.265625; 1.00215E-4
16453.125000; 1.17447E-4
16458.984375; 1.07034E-4
16464.843750; 9.89247E-5
16470.703125; 9.82357E-5
16476.562500; 9.49355E-5
16482.421875; 1.01345E-4
16488.281250; 1.07994E-4
16494.140625; 1.03146E-4
16500.000000; 1.11101E-4
16505.859375; 1.04427E-4
16511.718750; 1.06301E-4
16517.578125; 1.08962E-4
16523.437500; 1.02870E-4
16529.296875; 9.50886E-5
16535.156250; 9.31395E-5
16541.015625; 9.66719E-5
16546.875000; 1.01368E-4
16552.734375; 9.67377E-5
16558.593750; 1.03874E-4
16564.453125; 1.00523E-4
16570.312500; 9.45546E-5
16576.171875; 1.00724E-4
16582.031250; 9.65052E-5
16587.890625; 1.02385E-4
16593.750000; 1.03243E-4
16599.609375; 1.01586E-4
16605.468750; 9.14745E-5
16611.328125; 9.47895E-5
16617.187500; 9.46555E-5
16623.046875; 9.18760E-5
16628.906250; 9.67497E-5
16634.765625; 9.33386E-5
16640.625000; 1.04050E-4
16646.484375; 1.14587E-4
16652.343750; 1.16275E-4
16658.203125; 1.01825E-4
16664.062500; 1.07423E-4
16669.921875; 1.06635E-4
16675.781250; 9.88890E-5
16681.640625; 1.00736E-4
16687.500000; 1.07565E-4
16693.359375; 1.06320E-4
16699.218750; 1.03207E-4
16705.078125; 1.03171E-4
16710.937500; 9.59766E-5
16716.796875; 9.27021E-5
16722.656250; 9.90484E-5
16728.515625; 1.08871E-4
16734.375000; 1.06594E-4
16740.234375; 1.05952E-4
16746.093750; 9.80311E-5
16751.953125; 1.01728E-4
16757.812500; 1.00029E-4
16763.671875; 1.00180E-4
16769.531250; 1.08536E-4
16775.390625; 1.10383E-4
16781.250000; 9.89838E-5
16787.109375; 1.06522E-4
16792.968750; 1.07230E-4
16798.828125; 9.87764E-5
16804.687500; 1.11503E-4
16810.546875; 1.10969E-4
16816.406250; 1.03208E-4
16822.265625; 1.00980E-4
16828.125000; 1.08748E-4
16833.984375; 9.33397E-5
16839.843750; 8.55358E-5
16845.703125; 1.02362E-4
16851.562500; 1.12691E-4
16857.421875; 1.07196E-4
16863.281250; 1.01264E-4
16869.140625; 1.06863E-4
16875.000000; 1.03872E-4
16880.859375; 1.07205E-4
16886.718750; 1.03510E-4
16892.578125; 9.77030E-5
16898.437500; 9.03101E-5
16904.296875; 1.00688E-4
16910.156250; 9.71299E-5
16916.015625; 1.01602E-4
16921.875000; 1.00578E-4
16927.734375; 1.01918E-4
16933.593750; 1.07209E-4
16939.453125; 1.06368E-4
16945.312500; 9.22497E-5
16951.171875; 1.01217E-4
16957.031250; 1.07819E-4
16962.890625; 9.74170E-5
16968.750000; 9.70867E-5
16974.609375; 9.61853E-5
16980.468750; 1.03141E-4
16986.328125; 1.00574E-4
16992.187500; 1.03153E-4
16998.046875; 1.05116E-4
17003.906250; 9.55060E-5
17009.765625; 9.46539E-5
17015.625000; 9.22014E-5
17021.484375; 9.67581E-5
17027.343750; 1.02033E-4
17033.203125; 9.58589E-5
17039.062500; 9.00427E-5
17044.921875; 9.78757E-5
17050.781250; 9.85540E-5
17056.640625; 9.52027E-5
17062.500000; 9.58349E-5
17068.359375; 1.02498E-4
17074.218750; 1.08967E-4
17080.078125; 1.06328E-4
17085.937500; 1.10177E-4
17091.796875; 1.12939E-4
17097.656250; 1.04138E-4
17103.515625; 9.92306E-5
17109.375000; 9.22995E-5
17115.234375; 9.18815E-5
17121.093750; 9.70052E-5
17126.953125; 9.68208E-5
17132.812500; 1.01279E-4
17138.671875; 9.44512E-5
17144.531250; 9.83691E-5
17150.390625; 9.38335E-5
17156.250000; 8.95614E-5
17162.109375; 9.93003E-5
17167.968750; 9.76903E-5
17173.828125; 9.75394E-5
17179.687500; 9.85711E-5
17185.546875; 8.83491E-5
17191.406250; 9.44739E-5
17197.265625; 9.36390E-5
17203.125000; 9.30127E-5
17208.984375; 1.02041E-4
17214.843750; 1.03661E-4
17220.703125; 9.38024E-5
17226.562500; 9.85670E-5
17232.421875; 1.04445E-4
17238.281250; 9.82766E-5
17244.140625; 1.00328E-4
17250.000000; 1.06413E-4
17255.859375; 9.76019E-5
17261.718750; 9.29372E-5
17267.578125; 9.60056E-5
17273.437500; 9.79606E-5
17279.296875; 1.02198E-4
17285.156250; 1.03217E-4
17291.015625; 1.04943E-4
17296.875000; 9.35470E-5
17302.734375; 8.85716E-5
17308.593750; 9.96301E-5
17314.453125; 1.06817E-4
17320.312500; 9.99168E-5
17326.171875; 9.92150E-5
17332.031250; 9.99447E-5
17337.890625; 9.74785E-5
17343.750000; 9.90864E-5
17349.609375; 1.01128E-4
17355.468750; 1.02155E-4
17361.328125; 1.09730E-4
17367.187500; 9.83934E-5
17373.046875; 9.36847E-5
17378.906250; 9.76535E-5
17384.765625; 9.61055E-5
17390.625000; 9.93933E-5
17396.484375; 1.00969E-4
17402.343750; 1.01123E-4
17408.203125; 1.08598E-4
17414.062500; 1.07661E-4
17419.921875; 9.59269E-5
17425.781250; 8.81081E-5
17431.640625; 1.00579E-4
17437.500000; 9.51398E-5
17443.359375; 9.31210E-5
17449.218750; 9.53795E-5
17455.078125; 8.97809E-5
17460.937500; 8.61485E-5
17466.796875; 9.07937E-5
17472.656250; 9.91800E-5
17478.515625; 1.07119E-4
17484.375000; 1.10647E-4
17490.234375; 1.00593E-4
17496.093750; 8.25245E-5
17501.953125; 9.35523E-5
17507.812500; 1.08368E-4
17513.671875; 1.06898E-4
17519.531250; 9.84848E-5
17525.390625; 9.70685E-5
17531.250000; 9.57114E-5
17537.109375; 9.67630E-5
17542.968750; 9.45536E-5
17548.828125; 1.00662E-4
17554.687500; 1.04341E-4
17560.546875; 9.36686E-5
17566.406250; 1.00920E-4
17572.265625; 1.01552E-4
17578.125000; 1.08055E-4
17583.984375; 1.07478E-4
17589.843750; 9.22338E-5
17595.703125; 9.43150E-5
17601.562500; 1.02431E-4
17607.421875; 9.50596E-5
17613.281250; 9.59926E-5
17619.140625; 9.63139E-5
17625.000000; 1.04586E-4
17630.859375; 9.52275E-5
17636.718750; 9.67180E-5
17642.578125; 1.02058E-4
17648.437500; 9.84051E-5
17654.296875; 9.53084E-5
17660.156250; 1.01744E-4
17666.015625; 1.07274E-4
17671.875000; 1.00279E-4
17677.734375; 8.75997E-5
17683.593750; 9.48196E-5
17689.453125; 9.93137E-5
17695.312500; 1.00625E-4
17701.171875; 1.00130E-4
17707.031250; 9.99531E-5
17712.890625; 8.99476E-5
17718.750000; 8.93193E-5
17724.609375; 8.67924E-5
17730.468750; 9.76736E-5
17736.328125; 9.86093E-5
17742.187500; 1.06180E-4
17748.046875; 1.05575E-4
17753.906250; 1.02133E-4
17759.765625; 9.61504E-5
17765.625000; 9.76430E-5
17771.484375; 9.91348E-5
17777.343750; 1.06562E-4
17783.203125; 1.04620E-4
17789.062500; 9.93155E-5
17794.921875; 9.08170E-5
17800.781250; 9.57064E-5
17806.640625; 1.01648E-4
17812.500000; 9.37860E-5
17818.359375; 8.95857E-5
17824.218750; 9.87256E-5
17830.078125; 9.48644E-5
17835.937500; 8.95221E-5
17841.796875; 1.02800E-4
17847.656250; 9.93473E-5
17853.515625; 9.78963E-5
17859.375000; 1.00063E-4
17865.234375; 9.35019E-5
17871.093750; 9.77783E-5
17876.953125; 8.96631E-5
17882.812500; 9.00930E-5
17888.671875; 9.37673E-5
17894.531250; 9.60691E-5
17900.390625; 1.04974E-4
17906.250000; 1.02191E-4
17912.109375; 1.01644E-4
17917.968750; 9.72270E-5
17923.828125; 8.57812E-5
17929.687500; 9.49703E-5
17935.546875; 1.09883E-4
17941.406250; 9.94917E-5
17947.265625; 9.45593E-5
17953.125000; 9.14504E-5
17958.984375; 9.39949E-5
17964.843750; 9.62907E-5
17970.703125; 9.49031E-5
17976.562500; 9.50518E-5
17982.421875; 9.26209E-5
17988.281250; 9.34978E-5
17994.140625; 1.00789E-4
18000.000000; 9.70019E-5
18005.859375; 1.01247E-4
18011.718750; 1.05527E-4
18017.578125; 1.07896E-4
18023.437500; 1.02133E-4
18029.296875; 1.06086E-4
18035.156250; 9.78146E-5
18041.015625; 8.99990E-5
18046.875000; 9.02717E-5
18052.734375; 9.97884E-5
18058.593750; 1.10184E-4
18064.453125; 1.09593E-4
18070.312500; 9.27937E-5
18076.171875; 9.24225E-5
18082.031250; 1.01659E-4
18087.890625; 9.45646E-5
18093.750000; 9.01003E-5
18099.609375; 9.06845E-5
18105.468750; 9.81376E-5
18111.328125; 1.01501E-4
18117.187500; 1.03778E-4
18123.046875; 9.53035E-5
18128.906250; 1.08879E-4
18134.765625; 9.94513E-5
18140.625000; 9.62645E-5
18146.484375; 9.92897E-5
18152.343750; 1.02327E-4
18158.203125; 9.81315E-5
18164.062500; 9.54089E-5
18169.921875; 9.21113E-5
18175.781250; 1.00260E-4
18181.640625; 9.89727E-5
18187.500000; 9.45378E-5
18193.359375; 9.41066E-5
18199.218750; 9.61373E-5
18205.078125; 9.49155E-5
18210.937500; 9.64803E-5
18216.796875; 1.03288E-4
18222.656250; 9.69316E-5
18228.515625; 9.28208E-5
18234.375000; 9.31676E-5
18240.234375; 1.00538E-4
18246.093750; 9.95230E-5
18251.953125; 1.00167E-4
18257.812500; 9.38395E-5
18263.671875; 9.39795E-5
18269.531250; 9.35186E-5
18275.390625; 9.30567E-5
18281.250000; 9.86999E-5
18287.109375; 1.00077E-4
18292.968750; 9.98247E-5
18298.828125; 9.43864E-5
18304.687500; 9.67402E-5
18310.546875; 9.69578E-5
18316.406250; 9.00625E-5
18322.265625; 8.54643E-5
18328.125000; 8.56095E-5
18333.984375; 9.36476E-5
18339.843750; 9.66096E-5
18345.703125; 9.94047E-5
18351.562500; 9.48617E-5
18357.421875; 8.54439E-5
18363.281250; 9.54529E-5
18369.140625; 1.12060E-4
18375.000000; 1.07468E-4
18380.859375; 1.12027E-4
18386.718750; 1.04477E-4
18392.578125; 9.31538E-5
18398.437500; 9.82324E-5
18404.296875; 9.33974E-5
18410.156250; 9.51176E-5
18416.015625; 8.85973E-5
18421.875000; 9.92954E-5
18427.734375; 1.05119E-4
18433.593750; 1.08808E-4
18439.453125; 1.06277E-4
18445.312500; 1.03849E-4
18451.171875; 1.04405E-4
18457.031250; 1.00827E-4
18462.890625; 9.92808E-5
18468.750000; 9.57195E-5
18474.609375; 9.15872E-5
18480.468750; 1.03271E-4
18486.328125; 1.00172E-4
18492.187500; 1.00434E-4
18498.046875; 9.97956E-5
18503.906250; 9.85430E-5
18509.765625; 1.01197E-4
18515.625000; 1.01216E-4
18521.484375; 1.03909E-4
18527.343750; 1.00655E-4
18533.203125; 9.35934E-5
18539.062500; 9.64169E-5
18544.921875; 9.66157E-5
18550.781250; 9.69229E-5
18556.640625; 1.00438E-4
18562.500000; 9.85864E-5
18568.359375; 9.54762E-5
18574.218750; 9.05815E-5
18580.078125; 9.36321E-5
18585.937500; 9.43773E-5
18591.796875; 9.40524E-5
18597.656250; 8.71965E-5
18603.515625; 8.78561E-5
18609.375000; 9.37863E-5
18615.234375; 9.95968E-5
18621.093750; 8.55980E-5
18626.953125; 9.75752E-5
18632.812500; 9.15975E-5
18638.671875; 1.01187E-4
18644.531250; 1.03571E-4
18650.390625; 9.98571E-5
18656.250000; 1.01952E-4
18662.109375; 1.01093E-4
18667.968750; 9.69115E-5
18673.828125; 9.04447E-5
18679.687500; 9.15675E-5
18685.546875; 9.68804E-5
18691.406250; 9.20221E-5
18697.265625; 9.75507E-5
18703.125000; 1.04117E-4
18708.984375; 1.07117E-4
18714.843750; 1.00484E-4
18720.703125; 1.00130E-4
18726.562500; 9.68896E-5
18732.421875; 9.12854E-5
18738.281250; 9.50849E-5
18744.140625; 9.55974E-5
18750.000000; 1.01691E-4
18755.859375; 1.08565E-4
18761.718750; 9.92716E-5
18767.578125; 9.81132E-5
18773.437500; 9.74152E-5
18779.296875; 9.59719E-5
18785.156250; 1.00843E-4
18791.015625; 1.03155E-4
18796.875000; 1.11743E-4
18802.734375; 9.07033E-5
18808.593750; 9.24848E-5
18814.453125; 1.08119E-4
18820.312500; 1.05834E-4
18826.171875; 9.89140E-5
18832.031250; 8.86375E-5
18837.890625; 8.52709E-5
18843.750000; 8.98798E-5
18849.609375; 8.93840E-5
18855.468750; 9.34147E-5
18861.328125; 9.26901E-5
18867.187500; 1.07607E-4
18873.046875; 1.05834E-4
18878.906250; 9.14200E-5
18884.765625; 9.15159E-5
18890.625000; 1.07731E-4
18896.484375; 1.02114E-4
18902.343750; 8.70900E-5
18908.203125; 9.50321E-5
18914.062500; 1.09110E-4
18919.921875; 1.05651E-4
18925.781250; 9.93525E-5
18931.640625; 9.88754E-5
18937.500000; 1.02665E-4
18943.359375; 1.03262E-4
18949.218750; 1.01915E-4
18955.078125; 1.01095E-4
18960.937500; 9.64354E-5
18966.796875; 9.66835E-5
18972.656250; 1.05474E-4
18978.515625; 1.00325E-4
18984.375000; 9.56893E-5
18990.234375; 1.02443E-4
18996.093750; 9.65726E-5
19001.953125; 8.62394E-5
19007.812500; 9.65603E-5
19013.671875; 9.53581E-5
19019.531250; 1.02398E-4
19025.390625; 1.05913E-4
19031.250000; 9.32496E-5
19037.109375; 8.81956E-5
19042.968750; 9.16079E-5
19048.828125; 1.02796E-4
19054.687500; 1.03046E-4
19060.546875; 9.37732E-5
19066.406250; 8.69466E-5
19072.265625; 9.38546E-5
19078.125000; 9.50506E-5
19083.984375; 8.55963E-5
19089.843750; 7.89124E-5
19095.703125; 9.71299E-5
19101.562500; 1.04596E-4
19107.421875; 1.01464E-4
19113.281250; 9.71653E-5
19119.140625; 8.78853E-5
19125.000000; 9.64103E-5
19130.859375; 9.65906E-5
19136.718750; 9.18553E-5
19142.578125; 9.19584E-5
19148.437500; 9.15452E-5
19154.296875; 9.46053E-5
19160.156250; 9.78150E-5
19166.015625; 8.56078E-5
19171.875000; 9.03868E-5
19177.734375; 1.01119E-4
19183.593750; 1.00668E-4
19189.453125; 9.52683E-5
19195.312500; 1.03937E-4
19201.171875; 1.00552E-4
19207.031250; 9.44681E-5
19212.890625; 9.37991E-5
19218.750000; 9.65957E-5
19224.609375; 9.86262E-5
19230.468750; 1.05637E-4
19236.328125; 9.43130E-5
19242.187500; 9.16844E-5
19248.046875; 9.17448E-5
19253.906250; 1.02359E-4
19259.765625; 9.97495E-5
19265.625000; 9.59006E-5
19271.484375; 1.06017E-4
19277.343750; 9.00821E-5
19283.203125; 8.72199E-5
19289.062500; 8.66447E-5
19294.921875; 9.79024E-5
19300.781250; 9.45315E-5
19306.640625; 8.52730E-5
19312.500000; 7.93595E-5
19318.359375; 9.69587E-5
19324.218750; 1.11796E-4
19330.078125; 1.02401E-4
19335.937500; 9.60430E-5
19341.796875; 9.49134E-5
19347.656250; 1.01504E-4
19353.515625; 1.05501E-4
19359.375000; 1.03821E-4
19365.234375; 1.00772E-4
19371.093750; 1.01504E-4
19376.953125; 9.15648E-5
19382.812500; 9.42112E-5
19388.671875; 9.98534E-5
19394.531250; 9.80935E-5
19400.390625; 8.54052E-5
19406.250000; 9.46744E-5
19412.109375; 8.70098E-5
19417.968750; 9.15099E-5
19423.828125; 8.62715E-5
19429.687500; 9.51552E-5
19435.546875; 9.98450E-5
19441.406250; 9.41218E-5
19447.265625; 9.61025E-5
19453.125000; 9.69646E-5
19458.984375; 9.50362E-5
19464.843750; 9.47747E-5
19470.703125; 9.14377E-5
19476.562500; 9.44876E-5
19482.421875; 8.70555E-5
19488.281250; 9.01659E-5
19494.140625; 9.20690E-5
19500.000000; 9.65821E-5
19505.859375; 9.41409E-5
19511.718750; 9.31333E-5
19517.578125; 9.29886E-5
19523.437500; 1.03117E-4
19529.296875; 1.03517E-4
19535.156250; 9.95345E-5
19541.015625; 9.15795E-5
19546.875000; 9.81026E-5
19552.734375; 1.01639E-4
19558.593750; 9.79023E-5
19564.453125; 8.37330E-5
19570.312500; 9.69541E-5
19576.171875; 9.78310E-5
19582.031250; 8.91934E-5
19587.890625; 9.83823E-5
19593.750000; 9.72321E-5
19599.609375; 8.79104E-5
19605.468750; 8.83930E-5
19611.328125; 8.65035E-5
19617.187500; 9.53329E-5
19623.046875; 9.18982E-5
19628.906250; 9.56801E-5
19634.765625; 1.05118E-4
19640.625000; 1.04882E-4
19646.484375; 9.51547E-5
19652.343750; 8.18948E-5
19658.203125; 9.06696E-5
19664.062500; 9.97462E-5
19669.921875; 9.02510E-5
19675.781250; 8.88322E-5
19681.640625; 9.85856E-5
19687.500000; 1.09214E-4
19693.359375; 1.05135E-4
19699.218750; 9.64536E-5
19705.078125; 9.95885E-5
19710.937500; 9.53161E-5
19716.796875; 1.02911E-4
19722.656250; 9.49338E-5
19728.515625; 9.95029E-5
19734.375000; 9.53886E-5
19740.234375; 9.71626E-5
19746.093750; 1.02867E-4
19751.953125; 9.80655E-5
19757.812500; 1.09518E-4
19763.671875; 1.12649E-4
19769.531250; 1.01941E-4
19775.390625; 9.62881E-5
19781.250000; 9.11677E-5
19787.109375; 8.08431E-5
19792.968750; 8.10765E-5
19798.828125; 9.25616E-5
19804.687500; 8.76969E-5
19810.546875; 8.40330E-5
19816.406250; 9.10996E-5
19822.265625; 9.55907E-5
19828.125000; 1.03933E-4
19833.984375; 9.91061E-5
19839.843750; 1.00513E-4
19845.703125; 9.74426E-5
19851.562500; 8.77761E-5
19857.421875; 8.88915E-5
19863.281250; 8.57725E-5
19869.140625; 9.62606E-5
19875.000000; 9.97120E-5
19880.859375; 9.52056E-5
19886.718750; 1.07027E-4
19892.578125; 1.03869E-4
19898.437500; 1.01190E-4
19904.296875; 1.01984E-4
19910.156250; 9.95112E-5
19916.015625; 9.74086E-5
19921.875000; 9.80579E-5
19927.734375; 9.83019E-5
19933.593750; 9.17516E-5
19939.453125; 9.31293E-5
19945.312500; 9.54665E-5
19951.171875; 1.00636E-4
19957.031250; 1.03924E-4
19962.890625; 1.00194E-4
19968.750000; 9.28634E-5
19974.609375; 8.89246E-5
19980.468750; 9.33200E-5
19986.328125; 9.18377E-5
19992.187500; 8.36847E-5
19998.046875; 8.99587E-5
20003.906250; 9.99556E-5
20009.765625; 1.02978E-4
20015.625000; 9.72912E-5
20021.484375; 9.44179E-5
20027.343750; 9.17835E-5
20033.203125; 1.00174E-4
20039.062500; 9.72407E-5
20044.921875; 8.43888E-5
20050.781250; 9.49932E-5
20056.640625; 9.03486E-5
20062.500000; 1.00025E-4
20068.359375; 9.53107E-5
20074.218750; 1.01390E-4
20080.078125; 9.22993E-5
20085.937500; 8.94055E-5
20091.796875; 9.36394E-5
20097.656250; 8.89734E-5
20103.515625; 8.51441E-5
20109.375000; 9.65662E-5
20115.234375; 1.04339E-4
20121.093750; 1.04143E-4
20126.953125; 1.01208E-4
20132.812500; 8.76005E-5
20138.671875; 8.33243E-5
20144.531250; 9.22179E-5
20150.390625; 9.95633E-5
20156.250000; 1.02785E-4
20162.109375; 1.05221E-4
20167.968750; 9.52851E-5
20173.828125; 9.37608E-5
20179.687500; 9.95051E-5
20185.546875; 9.70047E-5
20191.406250; 1.00125E-4
20197.265625; 9.81841E-5
20203.125000; 9.75163E-5
20208.984375; 9.21635E-5
20214.843750; 8.64807E-5
20220.703125; 9.01366E-5
20226.562500; 9.39636E-5
20232.421875; 8.81507E-5
20238.281250; 9.76524E-5
20244.140625; 8.75914E-5
20250.000000; 9.83952E-5
20255.859375; 1.12024E-4
20261.718750; 9.70471E-5
20267.578125; 9.83153E-5
20273.437500; 1.01309E-4
20279.296875; 9.52884E-5
20285.156250; 9.34134E-5
20291.015625; 9.56000E-5
20296.875000; 9.05408E-5
20302.734375; 9.32212E-5
20308.593750; 1.00712E-4
20314.453125; 1.06514E-4
20320.312500; 9.66326E-5
20326.171875; 9.01832E-5
20332.031250; 9.94980E-5
20337.890625; 1.00117E-4
20343.750000; 9.12045E-5
20349.609375; 9.26984E-5
20355.468750; 9.18938E-5
20361.328125; 9.55479E-5
20367.187500; 9.01298E-5
20373.046875; 9.55953E-5
20378.906250; 9.85687E-5
20384.765625; 8.95675E-5
20390.625000; 9.46805E-5
20396.484375; 9.45889E-5
20402.343750; 8.58387E-5
20408.203125; 8.47786E-5
20414.062500; 9.39384E-5
20419.921875; 1.07142E-4
20425.781250; 1.00366E-4
20431.640625; 9.08916E-5
20437.500000; 9.91122E-5
20443.359375; 9.39711E-5
20449.218750; 9.75164E-5
20455.078125; 9.80099E-5
20460.937500; 1.03387E-4
20466.796875; 1.07565E-4
20472.656250; 9.58745E-5
20478.515625; 9.22724E-5
20484.375000; 8.88927E-5
20490.234375; 9.44615E-5
20496.093750; 9.91736E-5
20501.953125; 9.37296E-5
20507.812500; 9.82014E-5
20513.671875; 1.02971E-4
20519.531250; 1.07322E-4
20525.390625; 1.00423E-4
20531.250000; 8.64258E-5
20537.109375; 9.28227E-5
20542.968750; 9.40817E-5
20548.828125; 9.00132E-5
20554.687500; 9.12749E-5
20560.546875; 1.01411E-4
20566.406250; 1.03819E-4
20572.265625; 1.03315E-4
20578.125000; 9.64769E-5
20583.984375; 1.02552E-4
20589.843750; 1.01178E-4
20595.703125; 8.59608E-5
20601.562500; 8.67160E-5
20607.421875; 9.14600E-5
20613.281250; 8.71931E-5
20619.140625; 9.31905E-5
20625.000000; 1.00636E-4
20630.859375; 9.93784E-5
20636.718750; 1.00250E-4
20642.578125; 9.97757E-5
20648.437500; 9.62635E-5
20654.296875; 9.63542E-5
20660.156250; 1.03390E-4
20666.015625; 9.43872E-5
20671.875000; 9.26384E-5
20677.734375; 9.38284E-5
20683.593750; 1.00701E-4
20689.453125; 1.03939E-4
20695.312500; 9.52106E-5
20701.171875; 1.03250E-4
20707.031250; 8.87182E-5
20712.890625; 9.86400E-5
20718.750000; 1.04120E-4
20724.609375; 1.02439E-4
20730.468750; 1.01771E-4
20736.328125; 1.14437E-4
20742.187500; 9.75824E-5
20748.046875; 9.43670E-5
20753.906250; 9.95788E-5
20759.765625; 9.78524E-5
20765.625000; 9.39526E-5
20771.484375; 1.00841E-4
20777.343750; 9.51776E-5
20783.203125; 9.03689E-5
20789.062500; 9.62361E-5
20794.921875; 9.57606E-5
20800.781250; 9.51503E-5
20806.640625; 9.96482E-5
20812.500000; 9.89402E-5
20818.359375; 9.81075E-5
20824.218750; 1.04027E-4
20830.078125; 9.68037E-5
20835.937500; 8.62871E-5
20841.796875; 8.74333E-5
20847.656250; 8.71546E-5
20853.515625; 8.86925E-5
20859.375000; 9.06103E-5
20865.234375; 8.85835E-5
20871.093750; 9.50549E-5
20876.953125; 1.04103E-4
20882.812500; 9.39613E-5
20888.671875; 9.71742E-5
20894.531250; 1.00514E-4
20900.390625; 9.85208E-5
20906.250000; 9.37786E-5
20912.109375; 8.81025E-5
20917.968750; 8.72638E-5
20923.828125; 9.32295E-5
20929.687500; 9.13519E-5
20935.546875; 9.50269E-5
20941.406250; 9.88049E-5
20947.265625; 9.73029E-5
20953.125000; 1.03683E-4
20958.984375; 9.05085E-5
20964.843750; 9.63786E-5
20970.703125; 9.79217E-5
20976.562500; 9.24637E-5
20982.421875; 9.85716E-5
20988.281250; 1.03251E-4
20994.140625; 9.46363E-5
21000.000000; 8.24517E-5
21005.859375; 9.11394E-5
21011.718750; 1.00377E-4
21017.578125; 9.15750E-5
21023.437500; 8.78213E-5
21029.296875; 9.56689E-5
21035.156250; 9.76814E-5
21041.015625; 9.42766E-5
21046.875000; 9.61090E-5
21052.734375; 9.29103E-5
21058.593750; 1.01997E-4
21064.453125; 9.89912E-5
21070.312500; 1.00356E-4
21076.171875; 8.73405E-5
21082.031250; 8.66189E-5
21087.890625; 8.81606E-5
21093.750000; 9.64275E-5
21099.609375; 9.76336E-5
21105.468750; 9.04304E-5
21111.328125; 8.28128E-5
21117.187500; 8.83294E-5
21123.046875; 8.57415E-5
21128.906250; 1.01183E-4
21134.765625; 1.01019E-4
21140.625000; 1.03424E-4
21146.484375; 1.14332E-4
21152.343750; 9.77317E-5
21158.203125; 9.34256E-5
21164.062500; 9.22112E-5
21169.921875; 1.08141E-4
21175.781250; 1.12973E-4
21181.640625; 1.04756E-4
21187.500000; 1.04321E-4
21193.359375; 9.90547E-5
21199.218750; 9.63584E-5
21205.078125; 9.16740E-5
21210.937500; 9.25002E-5
21216.796875; 9.65160E-5
21222.656250; 9.59570E-5
21228.515625; 9.76946E-5
21234.375000; 9.97492E-5
21240.234375; 9.62880E-5
21246.093750; 8.86664E-5
21251.953125; 9.18389E-5
21257.812500; 9.92246E-5
21263.671875; 9.01977E-5
21269.531250; 9.68440E-5
21275.390625; 1.02010E-4
21281.250000; 9.21702E-5
21287.109375; 9.30330E-5
21292.968750; 9.20230E-5
21298.828125; 8.84583E-5
21304.687500; 8.40773E-5
21310.546875; 9.31775E-5
21316.406250; 9.25635E-5
21322.265625; 8.35280E-5
21328.125000; 9.18025E-5
21333.984375; 8.88726E-5
21339.843750; 9.73501E-5
21345.703125; 9.23107E-5
21351.562500; 1.01571E-4
21357.421875; 9.19397E-5
21363.281250; 9.34641E-5
21369.140625; 9.61778E-5
21375.000000; 9.64999E-5
21380.859375; 1.05581E-4
21386.718750; 1.08368E-4
21392.578125; 9.23095E-5
21398.437500; 9.38936E-5
21404.296875; 9.55247E-5
21410.156250; 9.34527E-5
21416.015625; 9.48630E-5
21421.875000; 9.68704E-5
21427.734375; 9.58854E-5
21433.593750; 9.65024E-5
21439.453125; 9.62471E-5
21445.312500; 9.52207E-5
21451.171875; 9.63824E-5
21457.031250; 1.01322E-4
21462.890625; 9.97992E-5
21468.750000; 9.66299E-5
21474.609375; 8.53110E-5
21480.468750; 8.99621E-5
21486.328125; 9.86164E-5
21492.187500; 9.88477E-5
21498.046875; 8.88296E-5
21503.906250; 9.98383E-5
21509.765625; 1.06737E-4
21515.625000; 9.81109E-5
21521.484375; 9.22241E-5
21527.343750; 9.41320E-5
21533.203125; 1.04588E-4
21539.062500; 9.69817E-5
21544.921875; 9.59133E-5
21550.781250; 9.95094E-5
21556.640625; 9.92616E-5
21562.500000; 9.12469E-5
21568.359375; 8.11446E-5
21574.218750; 8.67092E-5
21580.078125; 8.61098E-5
21585.937500; 8.91357E-5
21591.796875; 8.62216E-5
21597.656250; 9.45953E-5
21603.515625; 9.87983E-5
21609.375000; 9.82448E-5
21615.234375; 1.07645E-4
21621.093750; 1.13264E-4
21626.953125; 1.04471E-4
21632.812500; 9.80152E-5
21638.671875; 1.03382E-4
21644.531250; 9.55575E-5
21650.390625; 8.95610E-5
21656.250000; 9.41853E-5
21662.109375; 9.01801E-5
21667.968750; 9.12402E-5
21673.828125; 9.98854E-5
21679.687500; 8.97657E-5
21685.546875; 8.71467E-5
21691.406250; 9.39869E-5
21697.265625; 9.68163E-5
21703.125000; 9.52936E-5
21708.984375; 1.02306E-4
21714.843750; 9.86855E-5
21720.703125; 9.19414E-5
21726.562500; 9.30355E-5
21732.421875; 8.86327E-5
21738.281250; 8.55390E-5
21744.140625; 9.10391E-5
21750.000000; 9.36052E-5
21755.859375; 9.73674E-5
21761.718750; 9.34987E-5
21767.578125; 9.63502E-5
21773.437500; 9.29824E-5
21779.296875; 8.28592E-5
21785.156250; 7.87811E-5
21791.015625; 8.92495E-5
21796.875000; 9.82540E-5
21802.734375; 1.07040E-4
21808.593750; 9.58543E-5
21814.453125; 9.27202E-5
21820.312500; 9.03184E-5
21826.171875; 8.31640E-5
21832.031250; 8.56953E-5
21837.890625; 8.86724E-5
21843.750000; 9.45644E-5
21849.609375; 9.25543E-5
21855.468750; 8.65223E-5
21861.328125; 1.00156E-4
21867.187500; 1.05992E-4
21873.046875; 1.03770E-4
21878.906250; 9.45315E-5
21884.765625; 8.59146E-5
21890.625000; 9.15418E-5
21896.484375; 9.63134E-5
21902.343750; 9.83733E-5
21908.203125; 1.03758E-4
21914.062500; 9.33763E-5
21919.921875; 9.31468E-5
21925.781250; 9.56372E-5
21931.640625; 9.35830E-5
21937.500000; 9.74269E-5
21943.359375; 9.77310E-5
21949.218750; 9.37155E-5
21955.078125; 9.28358E-5
21960.937500; 8.77740E-5
21966.796875; 9.13691E-5
21972.656250; 9.52885E-5
21978.515625; 8.67903E-5
21984.375000; 8.51204E-5
21990.234375; 9.47452E-5
21996.093750; 1.09043E-4
22001.953125; 1.07133E-4
22007.812500; 1.00982E-4
22013.671875; 1.00587E-4
22019.531250; 9.79876E-5
22025.390625; 9.47344E-5
22031.250000; 9.60396E-5
22037.109375; 8.98548E-5
22042.968750; 8.50357E-5
22048.828125; 8.36586E-5
22054.687500; 9.38976E-5
22060.546875; 9.46949E-5
22066.406250; 8.81459E-5
22072.265625; 8.99674E-5
22078.125000; 9.42588E-5
22083.984375; 9.62268E-5
22089.843750; 8.92177E-5
22095.703125; 8.65368E-5
22101.562500; 8.95136E-5
22107.421875; 7.92555E-5
22113.281250; 8.04158E-5
22119.140625; 9.33492E-5
22125.000000; 8.24134E-5
22130.859375; 8.37185E-5
22136.718750; 9.52960E-5
22142.578125; 9.74836E-5
22148.437500; 9.13051E-5
22154.296875; 9.71707E-5
22160.156250; 9.48339E-5
22166.015625; 9.14717E-5
22171.875000; 9.12599E-5
22177.734375; 9.41820E-5
22183.593750; 9.47074E-5
22189.453125; 9.95328E-5
22195.312500; 1.02095E-4
22201.171875; 9.99879E-5
22207.031250; 9.41698E-5
22212.890625; 9.16132E-5
22218.750000; 9.09653E-5
22224.609375; 9.22126E-5
22230.468750; 9.29157E-5
22236.328125; 8.96151E-5
22242.187500; 8.69192E-5
22248.046875; 8.76582E-5
22253.906250; 8.83659E-5
22259.765625; 8.85037E-5
22265.625000; 8.44383E-5
22271.484375; 8.61961E-5
22277.343750; 9.41372E-5
22283.203125; 9.32982E-5
22289.062500; 9.35964E-5
22294.921875; 9.08423E-5
22300.781250; 9.48333E-5
22306.640625; 9.00671E-5
22312.500000; 9.73088E-5
22318.359375; 1.01443E-4
22324.218750; 9.73023E-5
22330.078125; 8.67857E-5
22335.937500; 8.98004E-5
22341.796875; 9.22812E-5
22347.656250; 8.93846E-5
22353.515625; 7.88970E-5
22359.375000; 7.35811E-5
22365.234375; 8.07980E-5
22371.093750; 8.56765E-5
22376.953125; 9.30879E-5
22382.812500; 9.18460E-5
22388.671875; 8.64429E-5
22394.531250; 8.37138E-5
22400.390625; 8.93072E-5
22406.250000; 8.17901E-5
22412.109375; 8.60939E-5
22417.968750; 9.08777E-5
22423.828125; 9.21210E-5
22429.687500; 9.95036E-5
22435.546875; 9.77503E-5
22441.406250; 9.59235E-5
22447.265625; 9.21857E-5
22453.125000; 8.78281E-5
22458.984375; 8.66143E-5
22464.843750; 9.36048E-5
22470.703125; 9.37348E-5
22476.562500; 9.13704E-5
22482.421875; 9.60930E-5
22488.281250; 9.16978E-5
22494.140625; 9.37243E-5
22500.000000; 9.28499E-5
22505.859375; 8.27716E-5
22511.718750; 8.45989E-5
22517.578125; 8.42121E-5
22523.437500; 8.25479E-5
22529.296875; 9.14721E-5
22535.156250; 9.57731E-5
22541.015625; 8.86168E-5
22546.875000; 8.58467E-5
22552.734375; 9.22103E-5
22558.593750; 8.48512E-5
22564.453125; 8.15621E-5
22570.312500; 8.04945E-5
22576.171875; 8.69543E-5
22582.031250; 8.49758E-5
22587.890625; 8.25581E-5
22593.750000; 9.55801E-5
22599.609375; 9.03447E-5
22605.468750; 9.26377E-5
22611.328125; 9.16960E-5
22617.187500; 9.46389E-5
22623.046875; 8.48361E-5
22628.906250; 7.89944E-5
22634.765625; 8.56171E-5
22640.625000; 8.85102E-5
22646.484375; 8.35655E-5
22652.343750; 8.25852E-5
22658.203125; 7.64321E-5
22664.062500; 8.58575E-5
22669.921875; 9.53308E-5
22675.781250; 8.76296E-5
22681.640625; 8.14402E-5
22687.500000; 8.07970E-5
22693.359375; 7.70503E-5
22699.218750; 7.72036E-5
22705.078125; 8.12766E-5
22710.937500; 8.43697E-5
22716.796875; 8.62770E-5
22722.656250; 8.77124E-5
22728.515625; 7.91359E-5
22734.375000; 7.99523E-5
22740.234375; 8.58424E-5
22746.093750; 7.95095E-5
22751.953125; 8.14516E-5
22757.812500; 8.41913E-5
22763.671875; 7.88497E-5
22769.531250; 7.83831E-5
22775.390625; 8.30169E-5
22781.250000; 8.06987E-5
22787.109375; 8.20253E-5
22792.968750; 8.05917E-5
22798.828125; 7.68654E-5
22804.687500; 8.29036E-5
22810.546875; 8.12517E-5
22816.406250; 7.94517E-5
22822.265625; 7.51887E-5
22828.125000; 8.75549E-5
22833.984375; 8.25753E-5
22839.843750; 7.65237E-5
22845.703125; 7.33290E-5
22851.562500; 7.71037E-5
22857.421875; 7.73848E-5
22863.281250; 7.72850E-5
22869.140625; 7.45004E-5
22875.000000; 7.40251E-5
22880.859375; 7.55641E-5
22886.718750; 7.30318E-5
22892.578125; 7.66592E-5
22898.437500; 8.89176E-5
22904.296875; 7.93314E-5
22910.156250; 7.82983E-5
22916.015625; 7.58749E-5
22921.875000; 8.09831E-5
22927.734375; 7.39893E-5
22933.593750; 6.92849E-5
22939.453125; 7.81270E-5
22945.312500; 8.05301E-5
22951.171875; 7.16288E-5
22957.031250; 8.00598E-5
22962.890625; 8.94788E-5
22968.750000; 7.85866E-5
22974.609375; 6.94477E-5
22980.468750; 7.33286E-5
22986.328125; 6.56191E-5
22992.187500; 6.55935E-5
22998.046875; 7.55269E-5
23003.906250; 7.80948E-5
23009.765625; 7.10858E-5
23015.625000; 6.97184E-5
23021.484375; 7.03182E-5
23027.343750; 7.25188E-5
23033.203125; 6.90891E-5
23039.062500; 6.73056E-5
23044.921875; 6.62307E-5
23050.781250; 6.73395E-5
23056.640625; 6.98856E-5
23062.500000; 7.62848E-5
23068.359375; 7.57894E-5
23074.218750; 6.91729E-5
23080.078125; 7.44582E-5
23085.937500; 6.84320E-5
23091.796875; 6.89585E-5
23097.656250; 6.69157E-5
23103.515625; 5.95506E-5
23109.375000; 6.44974E-5
23115.234375; 6.51974E-5
23121.093750; 6.38872E-5
23126.953125; 6.89414E-5
23132.812500; 6.45705E-5
23138.671875; 6.72660E-5
23144.531250; 6.51091E-5
23150.390625; 6.69545E-5
23156.250000; 6.97301E-5
23162.109375; 6.77878E-5
23167.968750; 6.52749E-5
23173.828125; 6.36512E-5
23179.687500; 6.13924E-5
23185.546875; 6.59686E-5
23191.406250; 6.40062E-5
23197.265625; 5.87669E-5
23203.125000; 6.14868E-5
23208.984375; 6.02317E-5
23214.843750; 6.83183E-5
23220.703125; 6.25466E-5
23226.562500; 6.61981E-5
23232.421875; 6.46372E-5
23238.281250; 6.51623E-5
23244.140625; 5.48777E-5
23250.000000; 5.51316E-5
23255.859375; 5.92640E-5
23261.718750; 6.15084E-5
23267.578125; 5.97725E-5
23273.437500; 6.03762E-5
23279.296875; 5.82894E-5
23285.156250; 5.08599E-5
23291.015625; 5.18592E-5
23296.875000; 5.68404E-5
23302.734375; 5.42375E-5
23308.593750; 5.62393E-5
23314.453125; 5.59728E-5
23320.312500; 5.57644E-5
23326.171875; 5.60652E-5
23332.031250; 5.65299E-5
23337.890625; 5.83394E-5
23343.750000; 5.55910E-5
23349.609375; 4.45097E-5
23355.468750; 5.31254E-5
23361.328125; 5.75785E-5
23367.187500; 5.72187E-5
23373.046875; 5.71866E-5
23378.906250; 5.47932E-5
23384.765625; 5.30366E-5
23390.625000; 5.17284E-5
23396.484375; 5.24629E-5
23402.343750; 5.47873E-5
23408.203125; 4.93155E-5
23414.062500; 4.69586E-5
23419.921875; 5.02483E-5
23425.781250; 5.49337E-5
23431.640625; 5.16422E-5
23437.500000; 4.99267E-5
23443.359375; 5.12312E-5
23449.218750; 4.95677E-5
23455.078125; 4.40749E-5
23460.937500; 4.81089E-5
23466.796875; 4.60628E-5
23472.656250; 4.78411E-5
23478.515625; 5.19655E-5
23484.375000; 4.87635E-5
23490.234375; 4.87358E-5
23496.093750; 4.62237E-5
23501.953125; 4.64891E-5
23507.812500; 4.78882E-5
23513.671875; 4.77994E-5
23519.531250; 4.53588E-5
23525.390625; 4.24256E-5
23531.250000; 4.76260E-5
23537.109375; 4.61189E-5
23542.968750; 4.34683E-5
23548.828125; 4.31940E-5
23554.687500; 4.43430E-5
23560.546875; 4.77677E-5
23566.406250; 4.81947E-5
23572.265625; 4.50396E-5
23578.125000; 4.05357E-5
23583.984375; 4.45090E-5
23589.843750; 4.47460E-5
23595.703125; 4.46244E-5
23601.562500; 3.76627E-5
23607.421875; 3.72517E-5
23613.281250; 4.26838E-5
23619.140625; 4.43649E-5
23625.000000; 4.09109E-5
23630.859375; 4.02664E-5
23636.718750; 4.02038E-5
23642.578125; 3.95458E-5
23648.437500; 4.02719E-5
23654.296875; 3.97466E-5
23660.156250; 3.84876E-5
23666.015625; 3.93071E-5
23671.875000; 4.07460E-5
23677.734375; 3.91474E-5
23683.593750; 3.82929E-5
23689.453125; 3.71211E-5
23695.312500; 3.45404E-5
23701.171875; 3.82761E-5
23707.031250; 3.78861E-5
23712.890625; 3.44065E-5
23718.750000; 3.85352E-5
23724.609375; 3.92905E-5
23730.468750; 3.88427E-5
23736.328125; 3.69206E-5
23742.187500; 3.50918E-5
23748.046875; 3.61265E-5
23753.906250; 3.48823E-5
23759.765625; 3.17330E-5
23765.625000; 3.24644E-5
23771.484375; 3.65171E-5
23777.343750; 3.74395E-5
23783.203125; 3.70631E-5
23789.062500; 3.63869E-5
23794.921875; 3.04322E-5
23800.781250; 3.53701E-5
23806.640625; 3.49646E-5
23812.500000; 3.52470E-5
23818.359375; 3.25062E-5
23824.218750; 3.26246E-5
23830.078125; 3.78691E-5
23835.937500; 3.34370E-5
23841.796875; 3.85905E-5
23847.656250; 3.70927E-5
23853.515625; 3.32489E-5
23859.375000; 3.33410E-5
23865.234375; 3.48812E-5
23871.093750; 3.71185E-5
23876.953125; 3.76457E-5
23882.812500; 3.73618E-5
23888.671875; 3.50961E-5
23894.531250; 3.63137E-5
23900.390625; 3.41454E-5
23906.250000; 3.10154E-5
23912.109375; 3.28865E-5
23917.968750; 3.09837E-5
23923.828125; 3.48408E-5
23929.687500; 3.30990E-5
23935.546875; 3.22747E-5
23941.406250; 3.27478E-5
23947.265625; 3.43382E-5
23953.125000; 3.29341E-5
23958.984375; 3.37563E-5
23964.843750; 3.54752E-5
23970.703125; 3.55501E-5
23976.562500; 3.59340E-5
23982.421875; 3.66966E-5
23988.281250; 3.37429E-5
23994.140625; 3.43256E-5
