* Measurement data measured by REW V5.31.3
* Source: PCM: default, no input selected, 2, volume: no control
* Format: 8192-point spectrum using Hann window and exponential averaging 0.97 
* Dated: Mar 9, 2025 1:22:58 PM
* REW Settings:
*  C-weighting compensation: Off
*  Target level: 75.0 dB
* Note: OSDEHA MU-OUTPUT; 8192-point spectrum using Hann window and exponential averaging 0.97  Input RMS 13.33 V 13.33 VC, 13.33 VA 13.33 V 22 - 22k UNW 937.0 uV >22k Distortion at 1,000.0 Hz, -17.50 dBFS: Gain: 29.68 dB THD: 0.015 % based on 21 harmonics  [0..22800 Hz] HHD: 0.0028 %  [10 .. 22] N: 0.11 %  [0..22800 Hz] N+D: 4.857 mV A THD+N: 0.11 %  [0..22800 Hz] SNR: 59.5 dB ENOB: 13.0 bits 2nd harmonic 0.014 % 142 deg 3rd harmonic 0.00096 % 8 deg 4th harmonic 0.00086 % 179 deg 5th harmonic 0.00081 % -10 deg 6th harmonic 0.00082 % 32 deg 7th harmonic 0.00083 % 38 deg 8th harmonic 0.00081 % -44 deg 9th harmonic 0.00083 % 179 deg 
* Measurement: OSDEHA MU-OUT 13.3V
* Smoothing: None
* Frequency Step: 5.859375 Hz
* Start Frequency: 5.859375 Hz
*
* Freq(Hz); V(V)
5.859375; 2.75948E-4
11.718750; 2.64242E-4
17.578125; 2.14127E-4
23.437500; 1.92747E-4
29.296875; 1.64373E-4
35.156250; 1.56559E-4
41.015625; 1.69732E-4
46.875000; 2.96256E-4
52.734375; 3.11980E-4
58.593750; 1.57245E-4
64.453125; 1.35827E-4
70.312500; 1.41606E-4
76.171875; 1.33014E-4
82.031250; 1.53859E-4
87.890625; 1.98934E-4
93.750000; 5.78571E-3
99.609375; 1.28457E-2
105.468750; 7.11064E-3
111.328125; 1.98684E-4
117.187500; 1.36707E-4
123.046875; 1.20356E-4
128.906250; 1.08001E-4
134.765625; 1.15872E-4
140.625000; 1.20755E-4
146.484375; 1.34273E-4
152.343750; 1.50650E-4
158.203125; 1.17805E-4
164.062500; 1.28249E-4
169.921875; 1.13438E-4
175.781250; 1.12052E-4
181.640625; 1.26280E-4
187.500000; 1.34703E-4
193.359375; 5.38971E-4
199.218750; 1.35036E-3
205.078125; 8.30363E-4
210.937500; 1.22143E-4
216.796875; 1.13023E-4
222.656250; 1.16795E-4
228.515625; 1.31855E-4
234.375000; 1.42827E-4
240.234375; 1.30161E-4
246.093750; 1.34236E-4
251.953125; 1.48611E-4
257.812500; 1.35906E-4
263.671875; 1.21990E-4
269.531250; 1.12768E-4
275.390625; 1.10679E-4
281.250000; 1.16346E-4
287.109375; 1.22114E-4
292.968750; 1.44202E-4
298.828125; 3.03351E-4
304.687500; 2.30855E-4
310.546875; 1.30017E-4
316.406250; 1.23306E-4
322.265625; 1.15959E-4
328.125000; 1.14482E-4
333.984375; 1.19020E-4
339.843750; 1.19957E-4
345.703125; 1.18491E-4
351.562500; 1.28818E-4
357.421875; 1.29669E-4
363.281250; 1.28286E-4
369.140625; 1.13454E-4
375.000000; 1.01005E-4
380.859375; 1.35356E-4
386.718750; 1.35206E-4
392.578125; 1.45107E-4
398.437500; 2.64698E-4
404.296875; 1.97093E-4
410.156250; 1.25402E-4
416.015625; 1.20586E-4
421.875000; 1.18298E-4
427.734375; 1.15780E-4
433.593750; 1.20228E-4
439.453125; 1.14326E-4
445.312500; 1.14388E-4
451.171875; 1.21004E-4
457.031250; 1.12995E-4
462.890625; 1.20409E-4
468.750000; 1.21209E-4
474.609375; 1.29288E-4
480.468750; 1.24665E-4
486.328125; 1.13677E-4
492.187500; 1.13541E-4
498.046875; 1.33219E-4
503.906250; 1.24643E-4
509.765625; 1.04267E-4
515.625000; 1.03541E-4
521.484375; 1.06776E-4
527.343750; 1.21578E-4
533.203125; 1.12813E-4
539.062500; 1.12230E-4
544.921875; 1.24584E-4
550.781250; 1.15452E-4
556.640625; 1.07471E-4
562.500000; 1.17638E-4
568.359375; 1.10705E-4
574.218750; 1.15636E-4
580.078125; 1.11503E-4
585.937500; 1.19397E-4
591.796875; 1.18594E-4
597.656250; 1.25615E-4
603.515625; 1.19427E-4
609.375000; 1.16090E-4
615.234375; 1.12797E-4
621.093750; 1.13788E-4
626.953125; 1.14309E-4
632.812500; 1.09720E-4
638.671875; 1.24744E-4
644.531250; 1.21685E-4
650.390625; 1.09442E-4
656.250000; 1.12861E-4
662.109375; 1.21021E-4
667.968750; 1.08411E-4
673.828125; 1.05569E-4
679.687500; 1.12758E-4
685.546875; 1.19110E-4
691.406250; 1.18822E-4
697.265625; 1.16662E-4
703.125000; 1.28171E-4
708.984375; 1.11957E-4
714.843750; 1.12686E-4
720.703125; 1.13303E-4
726.562500; 1.06329E-4
732.421875; 1.01088E-4
738.281250; 1.17122E-4
744.140625; 1.22108E-4
750.000000; 1.22444E-4
755.859375; 1.17724E-4
761.718750; 1.14788E-4
767.578125; 1.12378E-4
773.437500; 1.28423E-4
779.296875; 1.21430E-4
785.156250; 1.40665E-4
791.015625; 1.47319E-4
796.875000; 1.43870E-4
802.734375; 1.55631E-4
808.593750; 1.37647E-4
814.453125; 1.70724E-4
820.312500; 1.56871E-4
826.171875; 1.82053E-4
832.031250; 1.75686E-4
837.890625; 2.12802E-4
843.750000; 2.28148E-4
849.609375; 2.40562E-4
855.468750; 2.79177E-4
861.328125; 2.90457E-4
867.187500; 3.35485E-4
873.046875; 3.87192E-4
878.906250; 4.23241E-4
884.765625; 4.96653E-4
890.625000; 5.86336E-4
896.484375; 6.80474E-4
902.343750; 8.02450E-4
908.203125; 9.59418E-4
914.062500; 1.16570E-3
919.921875; 1.46572E-3
925.781250; 1.82440E-3
931.640625; 2.33276E-3
937.500000; 3.04636E-3
943.359375; 4.12394E-3
949.218750; 5.72137E-3
955.078125; 8.28749E-3
960.937500; 1.26917E-2
966.796875; 2.08455E-2
972.656250; 3.78893E-2
978.515625; 8.05258E-2
984.375000; 2.25463E-1
990.234375; 1.24009E0
996.093750; 9.92065E0
1001.953125; 1.24008E1
1007.812500; 3.54310E0
1013.671875; 3.54302E-1
1019.531250; 1.09017E-1
1025.390625; 4.76905E-2
1031.250000; 2.51081E-2
1037.109375; 1.48341E-2
1042.968750; 9.49238E-3
1048.828125; 6.44695E-3
1054.687500; 4.57891E-3
1060.546875; 3.35043E-3
1066.406250; 2.54502E-3
1072.265625; 1.98873E-3
1078.125000; 1.55172E-3
1083.984375; 1.26241E-3
1089.843750; 1.04827E-3
1095.703125; 8.23880E-4
1101.562500; 7.33598E-4
1107.421875; 6.12411E-4
1113.281250; 5.08523E-4
1119.140625; 4.60701E-4
1125.000000; 3.99382E-4
1130.859375; 3.36996E-4
1136.718750; 3.14809E-4
1142.578125; 2.71016E-4
1148.437500; 2.61586E-4
1154.296875; 2.29653E-4
1160.156250; 2.09623E-4
1166.015625; 1.97135E-4
1171.875000; 1.96133E-4
1177.734375; 1.51098E-4
1183.593750; 1.85391E-4
1189.453125; 1.41970E-4
1195.312500; 1.62273E-4
1201.171875; 1.46683E-4
1207.031250; 1.38498E-4
1212.890625; 1.41043E-4
1218.750000; 1.31191E-4
1224.609375; 1.18297E-4
1230.468750; 1.12881E-4
1236.328125; 1.16468E-4
1242.187500; 1.32074E-4
1248.046875; 1.13174E-4
1253.906250; 1.33611E-4
1259.765625; 1.20631E-4
1265.625000; 1.15401E-4
1271.484375; 1.21439E-4
1277.343750; 1.20070E-4
1283.203125; 1.21646E-4
1289.062500; 1.24841E-4
1294.921875; 1.09072E-4
1300.781250; 1.10169E-4
1306.640625; 1.08312E-4
1312.500000; 1.02601E-4
1318.359375; 1.09580E-4
1324.218750; 1.21288E-4
1330.078125; 1.13918E-4
1335.937500; 1.11285E-4
1341.796875; 1.19596E-4
1347.656250; 1.21115E-4
1353.515625; 1.15717E-4
1359.375000; 1.24743E-4
1365.234375; 1.12846E-4
1371.093750; 9.89922E-5
1376.953125; 1.03795E-4
1382.812500; 1.05274E-4
1388.671875; 1.08552E-4
1394.531250; 1.14898E-4
1400.390625; 1.17648E-4
1406.250000; 1.14451E-4
1412.109375; 1.07209E-4
1417.968750; 1.06901E-4
1423.828125; 1.18875E-4
1429.687500; 9.46963E-5
1435.546875; 1.03668E-4
1441.406250; 1.03357E-4
1447.265625; 1.00422E-4
1453.125000; 1.07923E-4
1458.984375; 1.06708E-4
1464.843750; 1.11558E-4
1470.703125; 1.15261E-4
1476.562500; 1.12726E-4
1482.421875; 1.13904E-4
1488.281250; 1.18985E-4
1494.140625; 1.02754E-4
1500.000000; 1.05363E-4
1505.859375; 9.99182E-5
1511.718750; 1.18321E-4
1517.578125; 1.27965E-4
1523.437500; 1.03244E-4
1529.296875; 9.89269E-5
1535.156250; 1.01850E-4
1541.015625; 1.00009E-4
1546.875000; 9.10204E-5
1552.734375; 9.10467E-5
1558.593750; 9.53145E-5
1564.453125; 1.03556E-4
1570.312500; 1.08757E-4
1576.171875; 1.06413E-4
1582.031250; 1.01278E-4
1587.890625; 1.09743E-4
1593.750000; 1.14683E-4
1599.609375; 1.10717E-4
1605.468750; 1.15041E-4
1611.328125; 1.11051E-4
1617.187500; 1.10123E-4
1623.046875; 1.11391E-4
1628.906250; 1.03736E-4
1634.765625; 1.03615E-4
1640.625000; 1.19947E-4
1646.484375; 1.18062E-4
1652.343750; 9.64709E-5
1658.203125; 9.33140E-5
1664.062500; 1.00563E-4
1669.921875; 1.14349E-4
1675.781250; 1.13223E-4
1681.640625; 1.00210E-4
1687.500000; 9.54528E-5
1693.359375; 9.22149E-5
1699.218750; 1.12551E-4
1705.078125; 1.14633E-4
1710.937500; 1.16632E-4
1716.796875; 1.18943E-4
1722.656250; 1.12873E-4
1728.515625; 1.10021E-4
1734.375000; 1.10338E-4
1740.234375; 1.08061E-4
1746.093750; 1.05918E-4
1751.953125; 1.11679E-4
1757.812500; 1.03300E-4
1763.671875; 1.00878E-4
1769.531250; 1.14899E-4
1775.390625; 1.13170E-4
1781.250000; 1.18411E-4
1787.109375; 1.23473E-4
1792.968750; 1.03666E-4
1798.828125; 1.05879E-4
1804.687500; 1.11552E-4
1810.546875; 9.52769E-5
1816.406250; 1.03257E-4
1822.265625; 1.12573E-4
1828.125000; 1.01861E-4
1833.984375; 1.05272E-4
1839.843750; 9.99940E-5
1845.703125; 1.05775E-4
1851.562500; 9.34941E-5
1857.421875; 1.06421E-4
1863.281250; 1.09087E-4
1869.140625; 1.09694E-4
1875.000000; 1.16851E-4
1880.859375; 9.72038E-5
1886.718750; 1.08972E-4
1892.578125; 1.28335E-4
1898.437500; 1.22632E-4
1904.296875; 1.10567E-4
1910.156250; 1.15446E-4
1916.015625; 1.29557E-4
1921.875000; 1.23501E-4
1927.734375; 1.15453E-4
1933.593750; 1.11065E-4
1939.453125; 1.06011E-4
1945.312500; 1.08654E-4
1951.171875; 1.03148E-4
1957.031250; 1.03171E-4
1962.890625; 1.04532E-4
1968.750000; 1.00251E-4
1974.609375; 1.04648E-4
1980.468750; 1.10060E-4
1986.328125; 1.26355E-4
1992.187500; 5.07156E-4
1998.046875; 1.78572E-3
2003.906250; 1.43635E-3
2009.765625; 2.16682E-4
2015.625000; 1.17341E-4
2021.484375; 1.14833E-4
2027.343750; 1.13288E-4
2033.203125; 1.15334E-4
2039.062500; 1.08278E-4
2044.921875; 1.14972E-4
2050.781250; 1.03878E-4
2056.640625; 1.08018E-4
2062.500000; 1.28227E-4
2068.359375; 1.25871E-4
2074.218750; 1.08805E-4
2080.078125; 1.12710E-4
2085.937500; 1.12003E-4
2091.796875; 1.09741E-4
2097.656250; 1.11912E-4
2103.515625; 1.12961E-4
2109.375000; 1.12789E-4
2115.234375; 1.20609E-4
2121.093750; 1.06615E-4
2126.953125; 1.07263E-4
2132.812500; 1.22159E-4
2138.671875; 1.29665E-4
2144.531250; 1.23023E-4
2150.390625; 1.11137E-4
2156.250000; 1.01228E-4
2162.109375; 1.04311E-4
2167.968750; 9.78453E-5
2173.828125; 1.07290E-4
2179.687500; 1.06125E-4
2185.546875; 1.03682E-4
2191.406250; 1.16307E-4
2197.265625; 1.14026E-4
2203.125000; 1.05286E-4
2208.984375; 1.06171E-4
2214.843750; 1.16996E-4
2220.703125; 1.04038E-4
2226.562500; 1.01727E-4
2232.421875; 9.63541E-5
2238.281250; 1.06200E-4
2244.140625; 1.15796E-4
2250.000000; 1.15323E-4
2255.859375; 9.38413E-5
2261.718750; 1.04872E-4
2267.578125; 1.16686E-4
2273.437500; 1.04970E-4
2279.296875; 1.02563E-4
2285.156250; 1.05558E-4
2291.015625; 1.16645E-4
2296.875000; 1.10697E-4
2302.734375; 1.07166E-4
2308.593750; 1.12203E-4
2314.453125; 1.04915E-4
2320.312500; 9.91459E-5
2326.171875; 1.09457E-4
2332.031250; 1.04148E-4
2337.890625; 1.05385E-4
2343.750000; 1.12496E-4
2349.609375; 1.07822E-4
2355.468750; 8.77246E-5
2361.328125; 9.98403E-5
2367.187500; 1.15078E-4
2373.046875; 1.02422E-4
2378.906250; 1.07997E-4
2384.765625; 1.13952E-4
2390.625000; 1.18268E-4
2396.484375; 1.04834E-4
2402.343750; 1.01363E-4
2408.203125; 1.01103E-4
2414.062500; 1.07925E-4
2419.921875; 1.06160E-4
2425.781250; 1.03883E-4
2431.640625; 1.17505E-4
2437.500000; 1.01194E-4
2443.359375; 1.04260E-4
2449.218750; 1.19830E-4
2455.078125; 1.20294E-4
2460.937500; 1.13365E-4
2466.796875; 1.02831E-4
2472.656250; 1.09696E-4
2478.515625; 1.13315E-4
2484.375000; 1.10414E-4
2490.234375; 1.19237E-4
2496.093750; 1.09293E-4
2501.953125; 1.04262E-4
2507.812500; 1.13223E-4
2513.671875; 1.16420E-4
2519.531250; 1.11347E-4
2525.390625; 1.19369E-4
2531.250000; 1.15901E-4
2537.109375; 1.08233E-4
2542.968750; 1.10691E-4
2548.828125; 1.10732E-4
2554.687500; 1.13195E-4
2560.546875; 1.05524E-4
2566.406250; 1.03828E-4
2572.265625; 9.91943E-5
2578.125000; 1.01285E-4
2583.984375; 1.05815E-4
2589.843750; 1.11402E-4
2595.703125; 1.04635E-4
2601.562500; 1.02627E-4
2607.421875; 9.17493E-5
2613.281250; 1.08293E-4
2619.140625; 1.14938E-4
2625.000000; 1.02228E-4
2630.859375; 1.06594E-4
2636.718750; 1.12182E-4
2642.578125; 1.09395E-4
2648.437500; 1.16179E-4
2654.296875; 1.10320E-4
2660.156250; 9.96174E-5
2666.015625; 1.08996E-4
2671.875000; 1.03611E-4
2677.734375; 1.17895E-4
2683.593750; 1.06941E-4
2689.453125; 1.06536E-4
2695.312500; 1.05873E-4
2701.171875; 1.00000E-4
2707.031250; 1.05880E-4
2712.890625; 1.10897E-4
2718.750000; 1.10040E-4
2724.609375; 1.12316E-4
2730.468750; 1.26485E-4
2736.328125; 1.17596E-4
2742.187500; 1.00730E-4
2748.046875; 1.03036E-4
2753.906250; 1.07886E-4
2759.765625; 1.10177E-4
2765.625000; 1.00639E-4
2771.484375; 9.96048E-5
2777.343750; 1.11005E-4
2783.203125; 1.01905E-4
2789.062500; 1.11613E-4
2794.921875; 1.14896E-4
2800.781250; 1.11125E-4
2806.640625; 1.13025E-4
2812.500000; 1.09853E-4
2818.359375; 1.05355E-4
2824.218750; 1.07827E-4
2830.078125; 1.08063E-4
2835.937500; 1.10344E-4
2841.796875; 1.03221E-4
2847.656250; 1.07868E-4
2853.515625; 1.17892E-4
2859.375000; 1.11272E-4
2865.234375; 9.65719E-5
2871.093750; 1.03586E-4
2876.953125; 1.24294E-4
2882.812500; 1.19444E-4
2888.671875; 1.07120E-4
2894.531250; 1.06257E-4
2900.390625; 1.14781E-4
2906.250000; 1.22774E-4
2912.109375; 1.17815E-4
2917.968750; 1.21896E-4
2923.828125; 1.17510E-4
2929.687500; 1.15778E-4
2935.546875; 1.08026E-4
2941.406250; 1.09441E-4
2947.265625; 9.60280E-5
2953.125000; 9.71280E-5
2958.984375; 1.06367E-4
2964.843750; 1.06948E-4
2970.703125; 1.18913E-4
2976.562500; 1.03094E-4
2982.421875; 1.05190E-4
2988.281250; 9.91980E-5
2994.140625; 1.09438E-4
3000.000000; 1.67142E-4
3005.859375; 1.21489E-4
3011.718750; 1.08135E-4
3017.578125; 1.04903E-4
3023.437500; 1.03763E-4
3029.296875; 9.72842E-5
3035.156250; 1.06176E-4
3041.015625; 1.20580E-4
3046.875000; 1.18717E-4
3052.734375; 1.01402E-4
3058.593750; 1.02717E-4
3064.453125; 9.97775E-5
3070.312500; 1.07428E-4
3076.171875; 1.23949E-4
3082.031250; 1.13954E-4
3087.890625; 1.07062E-4
3093.750000; 1.01884E-4
3099.609375; 9.80910E-5
3105.468750; 1.07362E-4
3111.328125; 1.07196E-4
3117.187500; 9.92624E-5
3123.046875; 9.36967E-5
3128.906250; 1.17391E-4
3134.765625; 1.12103E-4
3140.625000; 1.02545E-4
3146.484375; 1.03093E-4
3152.343750; 9.21031E-5
3158.203125; 1.02988E-4
3164.062500; 1.08758E-4
3169.921875; 1.06376E-4
3175.781250; 1.11429E-4
3181.640625; 1.11941E-4
3187.500000; 1.05323E-4
3193.359375; 1.04281E-4
3199.218750; 1.11518E-4
3205.078125; 1.08861E-4
3210.937500; 1.02651E-4
3216.796875; 9.91764E-5
3222.656250; 1.01647E-4
3228.515625; 1.14038E-4
3234.375000; 1.07964E-4
3240.234375; 9.92230E-5
3246.093750; 1.00663E-4
3251.953125; 1.07561E-4
3257.812500; 1.13652E-4
3263.671875; 1.08041E-4
3269.531250; 1.02297E-4
3275.390625; 1.11659E-4
3281.250000; 1.27304E-4
3287.109375; 1.24450E-4
3292.968750; 1.07207E-4
3298.828125; 1.06216E-4
3304.687500; 1.03867E-4
3310.546875; 9.77907E-5
3316.406250; 1.09921E-4
3322.265625; 1.17524E-4
3328.125000; 1.22441E-4
3333.984375; 1.13120E-4
3339.843750; 1.05236E-4
3345.703125; 1.06147E-4
3351.562500; 1.12014E-4
3357.421875; 1.01441E-4
3363.281250; 1.00651E-4
3369.140625; 1.18904E-4
3375.000000; 1.17552E-4
3380.859375; 1.01251E-4
3386.718750; 1.02969E-4
3392.578125; 1.11899E-4
3398.437500; 1.15346E-4
3404.296875; 1.14166E-4
3410.156250; 1.22114E-4
3416.015625; 1.14854E-4
3421.875000; 1.03171E-4
3427.734375; 9.64789E-5
3433.593750; 9.90113E-5
3439.453125; 1.00206E-4
3445.312500; 1.18638E-4
3451.171875; 1.25591E-4
3457.031250; 1.06639E-4
3462.890625; 1.17376E-4
3468.750000; 1.16138E-4
3474.609375; 1.14179E-4
3480.468750; 1.11518E-4
3486.328125; 1.18179E-4
3492.187500; 1.12658E-4
3498.046875; 1.07654E-4
3503.906250; 1.04648E-4
3509.765625; 1.02135E-4
3515.625000; 1.02442E-4
3521.484375; 1.31551E-4
3527.343750; 1.07490E-4
3533.203125; 1.10237E-4
3539.062500; 1.12252E-4
3544.921875; 1.13823E-4
3550.781250; 1.18318E-4
3556.640625; 1.06236E-4
3562.500000; 1.05361E-4
3568.359375; 1.06666E-4
3574.218750; 9.40585E-5
3580.078125; 9.17087E-5
3585.937500; 1.16115E-4
3591.796875; 1.17950E-4
3597.656250; 9.53475E-5
3603.515625; 9.68543E-5
3609.375000; 1.09679E-4
3615.234375; 1.18589E-4
3621.093750; 1.07338E-4
3626.953125; 1.05602E-4
3632.812500; 1.00870E-4
3638.671875; 9.75699E-5
3644.531250; 1.05734E-4
3650.390625; 1.05237E-4
3656.250000; 9.11227E-5
3662.109375; 8.91861E-5
3667.968750; 1.05123E-4
3673.828125; 1.01393E-4
3679.687500; 9.88132E-5
3685.546875; 1.04874E-4
3691.406250; 1.08719E-4
3697.265625; 1.06288E-4
3703.125000; 1.02372E-4
3708.984375; 1.07715E-4
3714.843750; 1.13405E-4
3720.703125; 1.20438E-4
3726.562500; 1.11480E-4
3732.421875; 1.07549E-4
3738.281250; 1.02470E-4
3744.140625; 1.03491E-4
3750.000000; 9.85838E-5
3755.859375; 1.02350E-4
3761.718750; 1.14685E-4
3767.578125; 1.21227E-4
3773.437500; 1.21108E-4
3779.296875; 9.30067E-5
3785.156250; 1.04497E-4
3791.015625; 1.12359E-4
3796.875000; 1.09082E-4
3802.734375; 1.12145E-4
3808.593750; 1.04469E-4
3814.453125; 1.10844E-4
3820.312500; 1.20234E-4
3826.171875; 1.13556E-4
3832.031250; 1.04747E-4
3837.890625; 9.85295E-5
3843.750000; 1.11656E-4
3849.609375; 1.20079E-4
3855.468750; 9.98854E-5
3861.328125; 9.79641E-5
3867.187500; 1.01798E-4
3873.046875; 1.06058E-4
3878.906250; 1.04793E-4
3884.765625; 1.18003E-4
3890.625000; 1.27373E-4
3896.484375; 1.17253E-4
3902.343750; 1.10320E-4
3908.203125; 1.14192E-4
3914.062500; 1.05988E-4
3919.921875; 1.04321E-4
3925.781250; 1.07998E-4
3931.640625; 1.00155E-4
3937.500000; 1.06769E-4
3943.359375; 1.21268E-4
3949.218750; 1.10555E-4
3955.078125; 1.08280E-4
3960.937500; 9.59709E-5
3966.796875; 8.62788E-5
3972.656250; 1.06443E-4
3978.515625; 1.12102E-4
3984.375000; 1.14930E-4
3990.234375; 1.17985E-4
3996.093750; 1.18347E-4
4001.953125; 1.29137E-4
4007.812500; 1.01892E-4
4013.671875; 9.81556E-5
4019.531250; 1.01642E-4
4025.390625; 1.09722E-4
4031.250000; 1.13278E-4
4037.109375; 1.05824E-4
4042.968750; 1.00526E-4
4048.828125; 1.03804E-4
4054.687500; 1.08885E-4
4060.546875; 1.00927E-4
4066.406250; 1.11674E-4
4072.265625; 1.06653E-4
4078.125000; 1.13904E-4
4083.984375; 1.01984E-4
4089.843750; 1.07658E-4
4095.703125; 1.13376E-4
4101.562500; 1.05757E-4
4107.421875; 1.11119E-4
4113.281250; 1.09663E-4
4119.140625; 1.08089E-4
4125.000000; 1.08497E-4
4130.859375; 9.35333E-5
4136.718750; 1.14592E-4
4142.578125; 1.16860E-4
4148.437500; 1.04906E-4
4154.296875; 1.10095E-4
4160.156250; 1.01441E-4
4166.015625; 1.10239E-4
4171.875000; 1.04725E-4
4177.734375; 1.01546E-4
4183.593750; 1.02067E-4
4189.453125; 1.11672E-4
4195.312500; 1.09560E-4
4201.171875; 1.08644E-4
4207.031250; 1.09855E-4
4212.890625; 1.05067E-4
4218.750000; 9.90600E-5
4224.609375; 1.06659E-4
4230.468750; 1.06769E-4
4236.328125; 1.12217E-4
4242.187500; 1.15029E-4
4248.046875; 1.14109E-4
4253.906250; 1.06135E-4
4259.765625; 9.95039E-5
4265.625000; 1.02086E-4
4271.484375; 9.67056E-5
4277.343750; 1.01428E-4
4283.203125; 1.00693E-4
4289.062500; 9.22400E-5
4294.921875; 9.57369E-5
4300.781250; 1.09500E-4
4306.640625; 1.16291E-4
4312.500000; 1.14527E-4
4318.359375; 1.06769E-4
4324.218750; 1.03857E-4
4330.078125; 1.04999E-4
4335.937500; 1.17160E-4
4341.796875; 1.12838E-4
4347.656250; 9.54115E-5
4353.515625; 9.83960E-5
4359.375000; 9.67241E-5
4365.234375; 1.04680E-4
4371.093750; 1.13958E-4
4376.953125; 1.08216E-4
4382.812500; 1.06633E-4
4388.671875; 1.09808E-4
4394.531250; 1.00073E-4
4400.390625; 1.08451E-4
4406.250000; 1.11117E-4
4412.109375; 1.04931E-4
4417.968750; 9.24712E-5
4423.828125; 9.56714E-5
4429.687500; 1.04500E-4
4435.546875; 1.14326E-4
4441.406250; 1.11335E-4
4447.265625; 1.16047E-4
4453.125000; 1.07621E-4
4458.984375; 1.01089E-4
4464.843750; 1.06456E-4
4470.703125; 1.04616E-4
4476.562500; 1.03257E-4
4482.421875; 1.20041E-4
4488.281250; 1.11199E-4
4494.140625; 9.99638E-5
4500.000000; 9.35798E-5
4505.859375; 1.06278E-4
4511.718750; 1.01592E-4
4517.578125; 9.41698E-5
4523.437500; 9.77316E-5
4529.296875; 1.06183E-4
4535.156250; 1.09355E-4
4541.015625; 1.04489E-4
4546.875000; 1.04220E-4
4552.734375; 1.11562E-4
4558.593750; 1.08045E-4
4564.453125; 1.14927E-4
4570.312500; 1.02386E-4
4576.171875; 1.02578E-4
4582.031250; 1.03843E-4
4587.890625; 1.00958E-4
4593.750000; 1.04698E-4
4599.609375; 1.10857E-4
4605.468750; 1.07258E-4
4611.328125; 1.18055E-4
4617.187500; 1.21339E-4
4623.046875; 1.01065E-4
4628.906250; 1.11480E-4
4634.765625; 1.20064E-4
4640.625000; 1.06401E-4
4646.484375; 1.14831E-4
4652.343750; 1.25845E-4
4658.203125; 1.15160E-4
4664.062500; 9.56199E-5
4669.921875; 9.86123E-5
4675.781250; 1.08908E-4
4681.640625; 1.22570E-4
4687.500000; 1.13677E-4
4693.359375; 1.04255E-4
4699.218750; 1.04738E-4
4705.078125; 1.13828E-4
4710.937500; 1.16673E-4
4716.796875; 1.05490E-4
4722.656250; 1.13869E-4
4728.515625; 1.11378E-4
4734.375000; 1.07941E-4
4740.234375; 1.03865E-4
4746.093750; 1.10196E-4
4751.953125; 1.03445E-4
4757.812500; 1.01890E-4
4763.671875; 1.07279E-4
4769.531250; 1.05431E-4
4775.390625; 1.13916E-4
4781.250000; 1.16011E-4
4787.109375; 1.04752E-4
4792.968750; 1.08708E-4
4798.828125; 9.73136E-5
4804.687500; 8.96845E-5
4810.546875; 1.03171E-4
4816.406250; 1.03306E-4
4822.265625; 1.05604E-4
4828.125000; 1.12499E-4
4833.984375; 1.18168E-4
4839.843750; 1.11338E-4
4845.703125; 1.03901E-4
4851.562500; 9.54032E-5
4857.421875; 1.03047E-4
4863.281250; 1.11749E-4
4869.140625; 1.06190E-4
4875.000000; 1.02674E-4
4880.859375; 1.12215E-4
4886.718750; 1.01858E-4
4892.578125; 9.71712E-5
4898.437500; 1.04835E-4
4904.296875; 1.17145E-4
4910.156250; 1.06943E-4
4916.015625; 1.08501E-4
4921.875000; 1.11227E-4
4927.734375; 1.01426E-4
4933.593750; 1.02425E-4
4939.453125; 1.16028E-4
4945.312500; 1.17335E-4
4951.171875; 1.19237E-4
4957.031250; 1.04102E-4
4962.890625; 1.06537E-4
4968.750000; 1.04649E-4
4974.609375; 9.33965E-5
4980.468750; 9.45574E-5
4986.328125; 1.11148E-4
4992.187500; 1.22009E-4
4998.046875; 1.11448E-4
5003.906250; 1.05905E-4
5009.765625; 1.03084E-4
5015.625000; 9.55678E-5
5021.484375; 9.72267E-5
5027.343750; 9.87193E-5
5033.203125; 1.04889E-4
5039.062500; 1.20870E-4
5044.921875; 1.06611E-4
5050.781250; 1.08201E-4
5056.640625; 1.11633E-4
5062.500000; 1.09324E-4
5068.359375; 1.26077E-4
5074.218750; 1.13569E-4
5080.078125; 1.07113E-4
5085.937500; 1.05288E-4
5091.796875; 1.07743E-4
5097.656250; 1.03178E-4
5103.515625; 1.00839E-4
5109.375000; 1.11041E-4
5115.234375; 1.16241E-4
5121.093750; 1.17886E-4
5126.953125; 1.06461E-4
5132.812500; 1.15907E-4
5138.671875; 1.20845E-4
5144.531250; 1.13895E-4
5150.390625; 1.08042E-4
5156.250000; 1.15744E-4
5162.109375; 1.06702E-4
5167.968750; 1.02451E-4
5173.828125; 1.12757E-4
5179.687500; 9.92679E-5
5185.546875; 9.96774E-5
5191.406250; 1.02999E-4
5197.265625; 1.02738E-4
5203.125000; 1.17984E-4
5208.984375; 1.22400E-4
5214.843750; 1.15892E-4
5220.703125; 1.19203E-4
5226.562500; 1.08636E-4
5232.421875; 1.06338E-4
5238.281250; 1.10637E-4
5244.140625; 1.07430E-4
5250.000000; 1.09094E-4
5255.859375; 1.09021E-4
5261.718750; 1.04705E-4
5267.578125; 1.10732E-4
5273.437500; 1.13947E-4
5279.296875; 1.20016E-4
5285.156250; 1.13560E-4
5291.015625; 1.10199E-4
5296.875000; 1.02052E-4
5302.734375; 1.03509E-4
5308.593750; 1.15597E-4
5314.453125; 1.22078E-4
5320.312500; 1.24224E-4
5326.171875; 1.04549E-4
5332.031250; 9.55261E-5
5337.890625; 1.09473E-4
5343.750000; 1.08623E-4
5349.609375; 1.06992E-4
5355.468750; 1.03006E-4
5361.328125; 9.53543E-5
5367.187500; 1.09787E-4
5373.046875; 1.05196E-4
5378.906250; 1.10551E-4
5384.765625; 1.15630E-4
5390.625000; 1.14279E-4
5396.484375; 1.01561E-4
5402.343750; 1.01208E-4
5408.203125; 1.06574E-4
5414.062500; 1.06117E-4
5419.921875; 1.07102E-4
5425.781250; 1.18077E-4
5431.640625; 1.19970E-4
5437.500000; 1.07122E-4
5443.359375; 9.30543E-5
5449.218750; 1.06315E-4
5455.078125; 1.09721E-4
5460.937500; 1.13941E-4
5466.796875; 1.14023E-4
5472.656250; 1.38103E-4
5478.515625; 1.32162E-4
5484.375000; 1.15041E-4
5490.234375; 1.06864E-4
5496.093750; 1.04287E-4
5501.953125; 1.14655E-4
5507.812500; 1.17760E-4
5513.671875; 1.17807E-4
5519.531250; 1.14505E-4
5525.390625; 1.11863E-4
5531.250000; 1.02007E-4
5537.109375; 1.09051E-4
5542.968750; 1.10865E-4
5548.828125; 1.03796E-4
5554.687500; 1.02870E-4
5560.546875; 1.03691E-4
5566.406250; 1.09713E-4
5572.265625; 1.15195E-4
5578.125000; 1.08925E-4
5583.984375; 9.93213E-5
5589.843750; 1.03073E-4
5595.703125; 1.08863E-4
5601.562500; 1.05962E-4
5607.421875; 1.00560E-4
5613.281250; 1.03665E-4
5619.140625; 1.08133E-4
5625.000000; 1.09633E-4
5630.859375; 1.04615E-4
5636.718750; 1.14345E-4
5642.578125; 1.14189E-4
5648.437500; 1.22129E-4
5654.296875; 1.11999E-4
5660.156250; 1.02290E-4
5666.015625; 1.15017E-4
5671.875000; 1.07675E-4
5677.734375; 1.05376E-4
5683.593750; 1.09929E-4
5689.453125; 9.99377E-5
5695.312500; 1.00167E-4
5701.171875; 1.20342E-4
5707.031250; 1.09992E-4
5712.890625; 1.01959E-4
5718.750000; 1.00735E-4
5724.609375; 1.14109E-4
5730.468750; 1.03843E-4
5736.328125; 9.73904E-5
5742.187500; 1.01853E-4
5748.046875; 1.00275E-4
5753.906250; 1.00096E-4
5759.765625; 1.00019E-4
5765.625000; 9.64962E-5
5771.484375; 1.08916E-4
5777.343750; 1.16355E-4
5783.203125; 1.17129E-4
5789.062500; 1.19874E-4
5794.921875; 1.13681E-4
5800.781250; 1.04366E-4
5806.640625; 1.06006E-4
5812.500000; 1.02081E-4
5818.359375; 1.10711E-4
5824.218750; 1.22292E-4
5830.078125; 1.30290E-4
5835.937500; 1.04001E-4
5841.796875; 8.82277E-5
5847.656250; 9.76984E-5
5853.515625; 9.91182E-5
5859.375000; 1.01772E-4
5865.234375; 1.05296E-4
5871.093750; 1.04804E-4
5876.953125; 1.14862E-4
5882.812500; 1.16204E-4
5888.671875; 9.68169E-5
5894.531250; 1.03938E-4
5900.390625; 1.04668E-4
5906.250000; 1.04560E-4
5912.109375; 1.10322E-4
5917.968750; 1.20369E-4
5923.828125; 1.14194E-4
5929.687500; 1.00032E-4
5935.546875; 1.12005E-4
5941.406250; 1.15432E-4
5947.265625; 1.13930E-4
5953.125000; 1.15974E-4
5958.984375; 1.21810E-4
5964.843750; 1.13541E-4
5970.703125; 1.07666E-4
5976.562500; 1.05413E-4
5982.421875; 1.04631E-4
5988.281250; 1.13918E-4
5994.140625; 1.04649E-4
6000.000000; 1.09721E-4
6005.859375; 1.11206E-4
6011.718750; 1.10003E-4
6017.578125; 1.15066E-4
6023.437500; 1.16312E-4
6029.296875; 1.08759E-4
6035.156250; 1.10580E-4
6041.015625; 1.10783E-4
6046.875000; 1.20519E-4
6052.734375; 1.17149E-4
6058.593750; 1.07669E-4
6064.453125; 1.00616E-4
6070.312500; 1.12904E-4
6076.171875; 1.13502E-4
6082.031250; 1.14525E-4
6087.890625; 1.14791E-4
6093.750000; 9.80259E-5
6099.609375; 9.93085E-5
6105.468750; 1.02616E-4
6111.328125; 1.14652E-4
6117.187500; 1.11856E-4
6123.046875; 1.03500E-4
6128.906250; 1.06333E-4
6134.765625; 1.08735E-4
6140.625000; 1.12286E-4
6146.484375; 1.22102E-4
6152.343750; 1.09309E-4
6158.203125; 1.08489E-4
6164.062500; 1.03298E-4
6169.921875; 9.65354E-5
6175.781250; 1.15461E-4
6181.640625; 1.11383E-4
6187.500000; 1.04769E-4
6193.359375; 1.15805E-4
6199.218750; 1.24396E-4
6205.078125; 1.06076E-4
6210.937500; 9.79660E-5
6216.796875; 1.01133E-4
6222.656250; 1.22785E-4
6228.515625; 1.23774E-4
6234.375000; 1.07370E-4
6240.234375; 1.04689E-4
6246.093750; 1.11121E-4
6251.953125; 1.15890E-4
6257.812500; 1.11629E-4
6263.671875; 9.53229E-5
6269.531250; 9.68767E-5
6275.390625; 1.02052E-4
6281.250000; 1.13791E-4
6287.109375; 1.03740E-4
6292.968750; 1.01138E-4
6298.828125; 1.01028E-4
6304.687500; 1.06953E-4
6310.546875; 1.09594E-4
6316.406250; 1.00618E-4
6322.265625; 1.02511E-4
6328.125000; 1.05821E-4
6333.984375; 1.14024E-4
6339.843750; 1.11570E-4
6345.703125; 1.00274E-4
6351.562500; 1.04169E-4
6357.421875; 9.73778E-5
6363.281250; 1.04846E-4
6369.140625; 1.14998E-4
6375.000000; 1.07309E-4
6380.859375; 1.08559E-4
6386.718750; 1.09144E-4
6392.578125; 1.02072E-4
6398.437500; 1.08857E-4
6404.296875; 1.10161E-4
6410.156250; 1.13170E-4
6416.015625; 1.02772E-4
6421.875000; 9.55467E-5
6427.734375; 1.06242E-4
6433.593750; 1.04913E-4
6439.453125; 1.04574E-4
6445.312500; 1.14550E-4
6451.171875; 1.15707E-4
6457.031250; 1.07949E-4
6462.890625; 1.15920E-4
6468.750000; 1.04970E-4
6474.609375; 1.11750E-4
6480.468750; 1.02490E-4
6486.328125; 9.90547E-5
6492.187500; 1.20549E-4
6498.046875; 1.25615E-4
6503.906250; 1.11343E-4
6509.765625; 1.08386E-4
6515.625000; 1.11678E-4
6521.484375; 1.12845E-4
6527.343750; 1.12744E-4
6533.203125; 1.13270E-4
6539.062500; 1.28516E-4
6544.921875; 1.20114E-4
6550.781250; 1.14211E-4
6556.640625; 1.16242E-4
6562.500000; 1.05858E-4
6568.359375; 1.01114E-4
6574.218750; 1.17110E-4
6580.078125; 1.22281E-4
6585.937500; 1.15986E-4
6591.796875; 1.01771E-4
6597.656250; 1.09465E-4
6603.515625; 1.16017E-4
6609.375000; 1.00541E-4
6615.234375; 1.14335E-4
6621.093750; 1.15888E-4
6626.953125; 1.11824E-4
6632.812500; 9.99117E-5
6638.671875; 9.42575E-5
6644.531250; 1.03334E-4
6650.390625; 1.09861E-4
6656.250000; 1.24713E-4
6662.109375; 1.10108E-4
6667.968750; 1.09625E-4
6673.828125; 1.05911E-4
6679.687500; 9.21912E-5
6685.546875; 9.65425E-5
6691.406250; 1.12773E-4
6697.265625; 1.11595E-4
6703.125000; 1.11673E-4
6708.984375; 1.02552E-4
6714.843750; 1.08109E-4
6720.703125; 1.09981E-4
6726.562500; 9.57567E-5
6732.421875; 1.01389E-4
6738.281250; 1.08299E-4
6744.140625; 1.12246E-4
6750.000000; 1.09014E-4
6755.859375; 1.04217E-4
6761.718750; 1.11729E-4
6767.578125; 1.08666E-4
6773.437500; 9.68081E-5
6779.296875; 1.04853E-4
6785.156250; 1.09509E-4
6791.015625; 9.72302E-5
6796.875000; 1.14237E-4
6802.734375; 1.16315E-4
6808.593750; 1.03575E-4
6814.453125; 1.06351E-4
6820.312500; 1.16065E-4
6826.171875; 1.15680E-4
6832.031250; 1.10998E-4
6837.890625; 1.07902E-4
6843.750000; 1.03327E-4
6849.609375; 1.09508E-4
6855.468750; 1.16241E-4
6861.328125; 1.19376E-4
6867.187500; 1.22924E-4
6873.046875; 1.16837E-4
6878.906250; 1.13968E-4
6884.765625; 1.11135E-4
6890.625000; 1.04912E-4
6896.484375; 1.05876E-4
6902.343750; 1.05146E-4
6908.203125; 1.02301E-4
6914.062500; 1.16618E-4
6919.921875; 1.11409E-4
6925.781250; 1.18089E-4
6931.640625; 1.08318E-4
6937.500000; 1.16947E-4
6943.359375; 1.24897E-4
6949.218750; 1.22635E-4
6955.078125; 1.13973E-4
6960.937500; 1.17620E-4
6966.796875; 1.24769E-4
6972.656250; 1.07734E-4
6978.515625; 1.09866E-4
6984.375000; 1.15692E-4
6990.234375; 1.09634E-4
6996.093750; 1.11331E-4
7001.953125; 1.04781E-4
7007.812500; 1.14149E-4
7013.671875; 1.15757E-4
7019.531250; 1.06577E-4
7025.390625; 9.81849E-5
7031.250000; 1.00046E-4
7037.109375; 1.06180E-4
7042.968750; 1.09233E-4
7048.828125; 1.12544E-4
7054.687500; 1.10513E-4
7060.546875; 1.06203E-4
7066.406250; 1.11534E-4
7072.265625; 1.11282E-4
7078.125000; 1.12064E-4
7083.984375; 1.13234E-4
7089.843750; 1.08429E-4
7095.703125; 9.19147E-5
7101.562500; 1.02289E-4
7107.421875; 1.03521E-4
7113.281250; 1.08944E-4
7119.140625; 1.10520E-4
7125.000000; 1.13671E-4
7130.859375; 1.06350E-4
7136.718750; 1.14289E-4
7142.578125; 1.19142E-4
7148.437500; 1.12110E-4
7154.296875; 1.12452E-4
7160.156250; 9.75665E-5
7166.015625; 1.03732E-4
7171.875000; 1.03814E-4
7177.734375; 1.04506E-4
7183.593750; 1.10462E-4
7189.453125; 1.20727E-4
7195.312500; 1.12839E-4
7201.171875; 9.50187E-5
7207.031250; 9.34668E-5
7212.890625; 1.13896E-4
7218.750000; 1.11832E-4
7224.609375; 1.04451E-4
7230.468750; 1.10710E-4
7236.328125; 1.26796E-4
7242.187500; 1.10753E-4
7248.046875; 9.29824E-5
7253.906250; 1.02026E-4
7259.765625; 1.03783E-4
7265.625000; 1.11296E-4
7271.484375; 1.01021E-4
7277.343750; 9.87856E-5
7283.203125; 1.03505E-4
7289.062500; 1.10705E-4
7294.921875; 1.05799E-4
7300.781250; 1.05869E-4
7306.640625; 1.14372E-4
7312.500000; 1.03716E-4
7318.359375; 9.71682E-5
7324.218750; 1.12283E-4
7330.078125; 1.18979E-4
7335.937500; 1.05160E-4
7341.796875; 1.10120E-4
7347.656250; 1.03304E-4
7353.515625; 1.08746E-4
7359.375000; 1.11330E-4
7365.234375; 1.20717E-4
7371.093750; 1.23397E-4
7376.953125; 1.06586E-4
7382.812500; 9.30749E-5
7388.671875; 1.08512E-4
7394.531250; 1.17163E-4
7400.390625; 1.12582E-4
7406.250000; 1.05910E-4
7412.109375; 9.51574E-5
7417.968750; 1.06170E-4
7423.828125; 9.99418E-5
7429.687500; 1.02039E-4
7435.546875; 1.12350E-4
7441.406250; 9.69200E-5
7447.265625; 1.07560E-4
7453.125000; 1.01234E-4
7458.984375; 9.94858E-5
7464.843750; 9.56924E-5
7470.703125; 1.01926E-4
7476.562500; 1.08513E-4
7482.421875; 1.08059E-4
7488.281250; 1.03687E-4
7494.140625; 1.00910E-4
7500.000000; 1.07827E-4
7505.859375; 1.13128E-4
7511.718750; 1.10778E-4
7517.578125; 1.10157E-4
7523.437500; 1.06954E-4
7529.296875; 1.09772E-4
7535.156250; 1.02997E-4
7541.015625; 1.13503E-4
7546.875000; 9.54473E-5
7552.734375; 1.06978E-4
7558.593750; 1.10193E-4
7564.453125; 9.70152E-5
7570.312500; 9.06903E-5
7576.171875; 9.24439E-5
7582.031250; 1.00536E-4
7587.890625; 1.01868E-4
7593.750000; 9.54148E-5
7599.609375; 1.01848E-4
7605.468750; 1.08300E-4
7611.328125; 1.11786E-4
7617.187500; 1.15336E-4
7623.046875; 1.21525E-4
7628.906250; 1.00481E-4
7634.765625; 1.06719E-4
7640.625000; 1.08735E-4
7646.484375; 1.05935E-4
7652.343750; 9.74240E-5
7658.203125; 9.60851E-5
7664.062500; 8.62162E-5
7669.921875; 8.84432E-5
7675.781250; 1.07884E-4
7681.640625; 1.08478E-4
7687.500000; 1.10870E-4
7693.359375; 9.64426E-5
7699.218750; 1.10560E-4
7705.078125; 1.14601E-4
7710.937500; 1.09872E-4
7716.796875; 9.93361E-5
7722.656250; 1.15476E-4
7728.515625; 1.13344E-4
7734.375000; 1.05249E-4
7740.234375; 1.00655E-4
7746.093750; 1.01423E-4
7751.953125; 1.09588E-4
7757.812500; 1.08622E-4
7763.671875; 1.09680E-4
7769.531250; 1.18323E-4
7775.390625; 1.05258E-4
7781.250000; 1.04436E-4
7787.109375; 9.63201E-5
7792.968750; 9.70735E-5
7798.828125; 1.00658E-4
7804.687500; 9.77301E-5
7810.546875; 1.07324E-4
7816.406250; 1.08803E-4
7822.265625; 1.11840E-4
7828.125000; 1.04924E-4
7833.984375; 1.05535E-4
7839.843750; 1.07932E-4
7845.703125; 1.07378E-4
7851.562500; 1.07474E-4
7857.421875; 1.11410E-4
7863.281250; 1.00705E-4
7869.140625; 1.08972E-4
7875.000000; 1.16995E-4
7880.859375; 1.25418E-4
7886.718750; 1.12983E-4
7892.578125; 1.02731E-4
7898.437500; 1.03190E-4
7904.296875; 9.77333E-5
7910.156250; 1.00786E-4
7916.015625; 1.14027E-4
7921.875000; 1.11523E-4
7927.734375; 1.14846E-4
7933.593750; 1.19975E-4
7939.453125; 1.16629E-4
7945.312500; 1.03966E-4
7951.171875; 1.19355E-4
7957.031250; 1.22251E-4
7962.890625; 1.21400E-4
7968.750000; 1.16720E-4
7974.609375; 1.12317E-4
7980.468750; 1.10950E-4
7986.328125; 1.08574E-4
7992.187500; 1.04030E-4
7998.046875; 1.07069E-4
8003.906250; 1.13246E-4
8009.765625; 1.11880E-4
8015.625000; 1.02638E-4
8021.484375; 9.79561E-5
8027.343750; 1.01740E-4
8033.203125; 1.09517E-4
8039.062500; 1.06445E-4
8044.921875; 1.09107E-4
8050.781250; 1.16046E-4
8056.640625; 1.19363E-4
8062.500000; 1.11508E-4
8068.359375; 1.07819E-4
8074.218750; 1.06773E-4
8080.078125; 9.69036E-5
8085.937500; 1.01675E-4
8091.796875; 1.05986E-4
8097.656250; 1.15202E-4
8103.515625; 1.14539E-4
8109.375000; 1.08711E-4
8115.234375; 1.21222E-4
8121.093750; 1.14956E-4
8126.953125; 1.10302E-4
8132.812500; 1.02075E-4
8138.671875; 1.03876E-4
8144.531250; 1.10459E-4
8150.390625; 9.43991E-5
8156.250000; 1.03813E-4
8162.109375; 1.04812E-4
8167.968750; 9.54308E-5
8173.828125; 1.05325E-4
8179.687500; 9.58050E-5
8185.546875; 9.95785E-5
8191.406250; 1.04154E-4
8197.265625; 1.08592E-4
8203.125000; 1.02713E-4
8208.984375; 1.03402E-4
8214.843750; 1.13948E-4
8220.703125; 1.06701E-4
8226.562500; 1.05232E-4
8232.421875; 1.04418E-4
8238.281250; 1.16379E-4
8244.140625; 1.11298E-4
8250.000000; 1.11465E-4
8255.859375; 1.07025E-4
8261.718750; 1.09361E-4
8267.578125; 9.89778E-5
8273.437500; 1.07908E-4
8279.296875; 1.16855E-4
8285.156250; 1.03029E-4
8291.015625; 9.48308E-5
8296.875000; 1.00872E-4
8302.734375; 9.77299E-5
8308.593750; 1.06207E-4
8314.453125; 9.36583E-5
8320.312500; 1.01295E-4
8326.171875; 1.06914E-4
8332.031250; 1.06582E-4
8337.890625; 1.15291E-4
8343.750000; 1.06598E-4
8349.609375; 1.03090E-4
8355.468750; 9.78972E-5
8361.328125; 1.06360E-4
8367.187500; 1.12972E-4
8373.046875; 1.14918E-4
8378.906250; 1.20978E-4
8384.765625; 1.19427E-4
8390.625000; 1.01074E-4
8396.484375; 1.01453E-4
8402.343750; 1.06883E-4
8408.203125; 1.04454E-4
8414.062500; 1.06609E-4
8419.921875; 1.07001E-4
8425.781250; 1.14536E-4
8431.640625; 1.14604E-4
8437.500000; 1.15635E-4
8443.359375; 1.01268E-4
8449.218750; 1.00490E-4
8455.078125; 1.03752E-4
8460.937500; 1.07897E-4
8466.796875; 1.06507E-4
8472.656250; 1.00671E-4
8478.515625; 1.00120E-4
8484.375000; 1.07652E-4
8490.234375; 1.05936E-4
8496.093750; 9.80759E-5
8501.953125; 1.01669E-4
8507.812500; 1.18998E-4
8513.671875; 1.13186E-4
8519.531250; 1.00952E-4
8525.390625; 1.00369E-4
8531.250000; 1.05733E-4
8537.109375; 1.02168E-4
8542.968750; 1.07696E-4
8548.828125; 1.07585E-4
8554.687500; 1.06742E-4
8560.546875; 1.04714E-4
8566.406250; 1.04479E-4
8572.265625; 9.58292E-5
8578.125000; 8.92519E-5
8583.984375; 8.75141E-5
8589.843750; 9.22359E-5
8595.703125; 9.37851E-5
8601.562500; 1.00460E-4
8607.421875; 1.06523E-4
8613.281250; 1.16923E-4
8619.140625; 1.21207E-4
8625.000000; 1.05189E-4
8630.859375; 1.02188E-4
8636.718750; 1.03455E-4
8642.578125; 1.06436E-4
8648.437500; 1.06124E-4
8654.296875; 1.09603E-4
8660.156250; 1.04997E-4
8666.015625; 1.05601E-4
8671.875000; 1.07338E-4
8677.734375; 8.79773E-5
8683.593750; 8.88871E-5
8689.453125; 1.02437E-4
8695.312500; 9.70814E-5
8701.171875; 1.05721E-4
8707.031250; 9.65607E-5
8712.890625; 9.30302E-5
8718.750000; 8.88610E-5
8724.609375; 9.94475E-5
8730.468750; 1.00603E-4
8736.328125; 1.04594E-4
8742.187500; 1.01057E-4
8748.046875; 9.90089E-5
8753.906250; 1.01401E-4
8759.765625; 1.00847E-4
8765.625000; 1.11826E-4
8771.484375; 9.70615E-5
8777.343750; 8.85799E-5
8783.203125; 9.36507E-5
8789.062500; 1.11691E-4
8794.921875; 1.07222E-4
8800.781250; 1.07520E-4
8806.640625; 1.13738E-4
8812.500000; 1.02452E-4
8818.359375; 1.03048E-4
8824.218750; 1.11965E-4
8830.078125; 1.12341E-4
8835.937500; 1.04785E-4
8841.796875; 1.04486E-4
8847.656250; 1.01959E-4
8853.515625; 1.09655E-4
8859.375000; 1.05352E-4
8865.234375; 9.50232E-5
8871.093750; 8.86484E-5
8876.953125; 9.48447E-5
8882.812500; 9.94635E-5
8888.671875; 9.61021E-5
8894.531250; 9.95585E-5
8900.390625; 1.01864E-4
8906.250000; 9.30454E-5
8912.109375; 9.88959E-5
8917.968750; 1.05180E-4
8923.828125; 8.98008E-5
8929.687500; 9.69282E-5
8935.546875; 1.06665E-4
8941.406250; 1.09949E-4
8947.265625; 1.14507E-4
8953.125000; 9.61339E-5
8958.984375; 1.00098E-4
8964.843750; 1.18028E-4
8970.703125; 1.00769E-4
8976.562500; 1.06649E-4
8982.421875; 1.15965E-4
8988.281250; 1.08835E-4
8994.140625; 9.90966E-5
9000.000000; 1.02068E-4
9005.859375; 1.17941E-4
9011.718750; 1.16343E-4
9017.578125; 1.14219E-4
9023.437500; 1.10831E-4
9029.296875; 9.98982E-5
9035.156250; 1.02720E-4
9041.015625; 1.09931E-4
9046.875000; 1.01074E-4
9052.734375; 1.19611E-4
9058.593750; 1.13807E-4
9064.453125; 1.10688E-4
9070.312500; 1.06447E-4
9076.171875; 1.04514E-4
9082.031250; 1.16973E-4
9087.890625; 1.18713E-4
9093.750000; 1.13040E-4
9099.609375; 1.06586E-4
9105.468750; 1.15213E-4
9111.328125; 1.03270E-4
9117.187500; 1.05954E-4
9123.046875; 1.19506E-4
9128.906250; 1.17022E-4
9134.765625; 1.07394E-4
9140.625000; 1.02391E-4
9146.484375; 1.10606E-4
9152.343750; 1.12891E-4
9158.203125; 1.01125E-4
9164.062500; 9.22099E-5
9169.921875; 9.21248E-5
9175.781250; 1.08637E-4
9181.640625; 1.17111E-4
9187.500000; 1.11033E-4
9193.359375; 1.09335E-4
9199.218750; 1.02546E-4
9205.078125; 1.06976E-4
9210.937500; 1.06179E-4
9216.796875; 1.03041E-4
9222.656250; 1.15372E-4
9228.515625; 1.21857E-4
9234.375000; 1.20287E-4
9240.234375; 1.13393E-4
9246.093750; 1.02994E-4
9251.953125; 1.07745E-4
9257.812500; 1.08150E-4
9263.671875; 1.08359E-4
9269.531250; 1.00713E-4
9275.390625; 9.48804E-5
9281.250000; 1.07032E-4
9287.109375; 1.09047E-4
9292.968750; 1.17196E-4
9298.828125; 1.06186E-4
9304.687500; 9.92841E-5
9310.546875; 1.06067E-4
9316.406250; 1.09853E-4
9322.265625; 1.00244E-4
9328.125000; 1.00292E-4
9333.984375; 1.12944E-4
9339.843750; 1.21885E-4
9345.703125; 1.15599E-4
9351.562500; 1.04207E-4
9357.421875; 1.02773E-4
9363.281250; 1.01450E-4
9369.140625; 1.05374E-4
9375.000000; 1.18491E-4
9380.859375; 1.14374E-4
9386.718750; 1.12287E-4
9392.578125; 1.12126E-4
9398.437500; 1.07170E-4
9404.296875; 1.19193E-4
9410.156250; 1.19217E-4
9416.015625; 1.15323E-4
9421.875000; 1.05857E-4
9427.734375; 1.05378E-4
9433.593750; 1.01308E-4
9439.453125; 9.84514E-5
9445.312500; 9.55681E-5
9451.171875; 9.40798E-5
9457.031250; 9.79474E-5
9462.890625; 1.06905E-4
9468.750000; 1.14008E-4
9474.609375; 1.09740E-4
9480.468750; 1.17593E-4
9486.328125; 1.14945E-4
9492.187500; 1.08415E-4
9498.046875; 1.02130E-4
9503.906250; 1.03366E-4
9509.765625; 1.10124E-4
9515.625000; 1.04062E-4
9521.484375; 9.70224E-5
9527.343750; 9.69619E-5
9533.203125; 9.44647E-5
9539.062500; 1.06668E-4
9544.921875; 1.03034E-4
9550.781250; 1.03425E-4
9556.640625; 9.87258E-5
9562.500000; 1.00521E-4
9568.359375; 9.54076E-5
9574.218750; 1.14041E-4
9580.078125; 1.20299E-4
9585.937500; 1.14843E-4
9591.796875; 1.02912E-4
9597.656250; 1.01645E-4
9603.515625; 1.05604E-4
9609.375000; 1.01181E-4
9615.234375; 1.16406E-4
9621.093750; 1.12038E-4
9626.953125; 1.01750E-4
9632.812500; 9.51214E-5
9638.671875; 1.08941E-4
9644.531250; 1.03687E-4
9650.390625; 9.67471E-5
9656.250000; 1.05781E-4
9662.109375; 1.07052E-4
9667.968750; 1.09480E-4
9673.828125; 1.13868E-4
9679.687500; 1.10277E-4
9685.546875; 1.16115E-4
9691.406250; 1.12941E-4
9697.265625; 1.10729E-4
9703.125000; 1.12422E-4
9708.984375; 1.02284E-4
9714.843750; 9.87313E-5
9720.703125; 1.01096E-4
9726.562500; 1.02420E-4
9732.421875; 1.01857E-4
9738.281250; 9.48968E-5
9744.140625; 1.10472E-4
9750.000000; 1.11362E-4
9755.859375; 1.01316E-4
9761.718750; 1.06723E-4
9767.578125; 9.70932E-5
9773.437500; 1.07340E-4
9779.296875; 1.02938E-4
9785.156250; 9.27681E-5
9791.015625; 8.90988E-5
9796.875000; 8.73451E-5
9802.734375; 9.92847E-5
9808.593750; 1.01776E-4
9814.453125; 1.03343E-4
9820.312500; 1.00530E-4
9826.171875; 9.36940E-5
9832.031250; 1.03105E-4
9837.890625; 1.15242E-4
9843.750000; 1.06370E-4
9849.609375; 1.00893E-4
9855.468750; 9.91109E-5
9861.328125; 9.93711E-5
9867.187500; 1.10669E-4
9873.046875; 1.11966E-4
9878.906250; 1.10255E-4
9884.765625; 9.92523E-5
9890.625000; 9.38782E-5
9896.484375; 1.04608E-4
9902.343750; 1.03102E-4
9908.203125; 9.57824E-5
9914.062500; 1.16076E-4
9919.921875; 1.18257E-4
9925.781250; 1.10670E-4
9931.640625; 9.97042E-5
9937.500000; 1.02619E-4
9943.359375; 1.12411E-4
9949.218750; 1.13434E-4
9955.078125; 1.15335E-4
9960.937500; 1.14282E-4
9966.796875; 1.08688E-4
9972.656250; 1.06085E-4
9978.515625; 9.90347E-5
9984.375000; 1.10932E-4
9990.234375; 9.84032E-5
9996.093750; 1.05119E-4
10001.953125; 1.03433E-4
10007.812500; 1.01529E-4
10013.671875; 1.07170E-4
10019.531250; 1.14857E-4
10025.390625; 1.11597E-4
10031.250000; 1.12278E-4
10037.109375; 1.07090E-4
10042.968750; 1.00149E-4
10048.828125; 9.93670E-5
10054.687500; 9.30978E-5
10060.546875; 1.07919E-4
10066.406250; 1.09398E-4
10072.265625; 9.43956E-5
10078.125000; 9.80803E-5
10083.984375; 9.98099E-5
10089.843750; 1.04530E-4
10095.703125; 1.05096E-4
10101.562500; 9.94382E-5
10107.421875; 1.02601E-4
10113.281250; 1.03817E-4
10119.140625; 9.01219E-5
10125.000000; 9.45634E-5
10130.859375; 1.03964E-4
10136.718750; 9.78787E-5
10142.578125; 1.04136E-4
10148.437500; 1.04903E-4
10154.296875; 9.90556E-5
10160.156250; 1.04576E-4
10166.015625; 1.01873E-4
10171.875000; 1.05262E-4
10177.734375; 1.06457E-4
10183.593750; 1.09399E-4
10189.453125; 1.06359E-4
10195.312500; 1.13247E-4
10201.171875; 1.06396E-4
10207.031250; 1.03913E-4
10212.890625; 9.98264E-5
10218.750000; 1.12571E-4
10224.609375; 1.14435E-4
10230.468750; 1.11312E-4
10236.328125; 1.14593E-4
10242.187500; 1.18082E-4
10248.046875; 1.06346E-4
10253.906250; 1.05375E-4
10259.765625; 1.02377E-4
10265.625000; 1.05662E-4
10271.484375; 1.04244E-4
10277.343750; 9.99526E-5
10283.203125; 1.10314E-4
10289.062500; 1.14784E-4
10294.921875; 1.04724E-4
10300.781250; 1.14126E-4
10306.640625; 1.07390E-4
10312.500000; 1.04881E-4
10318.359375; 1.00066E-4
10324.218750; 1.10326E-4
10330.078125; 1.05931E-4
10335.937500; 1.02080E-4
10341.796875; 1.08138E-4
10347.656250; 1.08435E-4
10353.515625; 8.46091E-5
10359.375000; 9.17365E-5
10365.234375; 1.18337E-4
10371.093750; 1.19035E-4
10376.953125; 1.09287E-4
10382.812500; 1.07823E-4
10388.671875; 1.11284E-4
10394.531250; 9.74417E-5
10400.390625; 1.03077E-4
10406.250000; 1.14269E-4
10412.109375; 1.02880E-4
10417.968750; 1.02767E-4
10423.828125; 1.10623E-4
10429.687500; 1.00921E-4
10435.546875; 9.84096E-5
10441.406250; 9.66413E-5
10447.265625; 1.02624E-4
10453.125000; 1.14903E-4
10458.984375; 1.11135E-4
10464.843750; 1.04300E-4
10470.703125; 9.67298E-5
10476.562500; 8.51966E-5
10482.421875; 1.04847E-4
10488.281250; 1.03245E-4
10494.140625; 1.01229E-4
10500.000000; 1.10834E-4
10505.859375; 1.18645E-4
10511.718750; 9.82712E-5
10517.578125; 1.06655E-4
10523.437500; 1.18938E-4
10529.296875; 1.15535E-4
10535.156250; 1.04613E-4
10541.015625; 1.02677E-4
10546.875000; 9.38140E-5
10552.734375; 1.13509E-4
10558.593750; 1.10411E-4
10564.453125; 9.96275E-5
10570.312500; 1.13183E-4
10576.171875; 1.15828E-4
10582.031250; 1.04445E-4
10587.890625; 1.20645E-4
10593.750000; 1.33797E-4
10599.609375; 1.26763E-4
10605.468750; 1.03648E-4
10611.328125; 8.44741E-5
10617.187500; 1.13014E-4
10623.046875; 1.13127E-4
10628.906250; 9.66826E-5
10634.765625; 9.94028E-5
10640.625000; 1.10312E-4
10646.484375; 1.19656E-4
10652.343750; 1.09236E-4
10658.203125; 1.07069E-4
10664.062500; 1.11643E-4
10669.921875; 1.00847E-4
10675.781250; 1.13765E-4
10681.640625; 1.20333E-4
10687.500000; 1.17364E-4
10693.359375; 1.06991E-4
10699.218750; 1.03569E-4
10705.078125; 1.04479E-4
10710.937500; 9.68857E-5
10716.796875; 9.30835E-5
10722.656250; 1.00200E-4
10728.515625; 9.89299E-5
10734.375000; 1.08046E-4
10740.234375; 1.13026E-4
10746.093750; 1.17425E-4
10751.953125; 1.17025E-4
10757.812500; 1.08259E-4
10763.671875; 1.10648E-4
10769.531250; 1.07164E-4
10775.390625; 1.06617E-4
10781.250000; 1.02045E-4
10787.109375; 9.80212E-5
10792.968750; 8.83601E-5
10798.828125; 1.07584E-4
10804.687500; 1.04520E-4
10810.546875; 1.08829E-4
10816.406250; 9.94828E-5
10822.265625; 9.54467E-5
10828.125000; 9.76041E-5
10833.984375; 1.13551E-4
10839.843750; 1.09358E-4
10845.703125; 1.03092E-4
10851.562500; 1.04069E-4
10857.421875; 1.01316E-4
10863.281250; 9.76790E-5
10869.140625; 9.47153E-5
10875.000000; 1.08805E-4
10880.859375; 1.11040E-4
10886.718750; 1.04601E-4
10892.578125; 1.03735E-4
10898.437500; 1.03030E-4
10904.296875; 1.00892E-4
10910.156250; 1.05724E-4
10916.015625; 1.09604E-4
10921.875000; 1.16153E-4
10927.734375; 1.14313E-4
10933.593750; 1.10913E-4
10939.453125; 1.07921E-4
10945.312500; 1.09931E-4
10951.171875; 1.09202E-4
10957.031250; 1.08379E-4
10962.890625; 1.12435E-4
10968.750000; 1.11522E-4
10974.609375; 1.09363E-4
10980.468750; 1.06229E-4
10986.328125; 1.14012E-4
10992.187500; 1.14358E-4
10998.046875; 1.00397E-4
11003.906250; 8.97243E-5
11009.765625; 9.63573E-5
11015.625000; 1.08418E-4
11021.484375; 1.16778E-4
11027.343750; 1.08551E-4
11033.203125; 9.92577E-5
11039.062500; 1.06056E-4
11044.921875; 1.08830E-4
11050.781250; 1.10595E-4
11056.640625; 1.19968E-4
11062.500000; 1.21246E-4
11068.359375; 1.03244E-4
11074.218750; 9.81842E-5
11080.078125; 9.88356E-5
11085.937500; 1.02751E-4
11091.796875; 1.07392E-4
11097.656250; 1.02559E-4
11103.515625; 9.92644E-5
11109.375000; 1.08541E-4
11115.234375; 1.16405E-4
11121.093750; 1.07685E-4
11126.953125; 9.43465E-5
11132.812500; 1.06966E-4
11138.671875; 1.08334E-4
11144.531250; 1.11623E-4
11150.390625; 1.11849E-4
11156.250000; 1.00131E-4
11162.109375; 9.29381E-5
11167.968750; 1.05801E-4
11173.828125; 1.14241E-4
11179.687500; 1.09240E-4
11185.546875; 1.03273E-4
11191.406250; 1.10055E-4
11197.265625; 1.07139E-4
11203.125000; 1.11480E-4
11208.984375; 1.10899E-4
11214.843750; 1.05569E-4
11220.703125; 1.00601E-4
11226.562500; 9.90586E-5
11232.421875; 1.10083E-4
11238.281250; 1.05701E-4
11244.140625; 9.19687E-5
11250.000000; 1.09431E-4
11255.859375; 1.13390E-4
11261.718750; 1.10468E-4
11267.578125; 1.07445E-4
11273.437500; 1.03848E-4
11279.296875; 1.05430E-4
11285.156250; 1.17235E-4
11291.015625; 1.23058E-4
11296.875000; 1.07850E-4
11302.734375; 9.84188E-5
11308.593750; 1.04861E-4
11314.453125; 1.16826E-4
11320.312500; 1.07259E-4
11326.171875; 1.14029E-4
11332.031250; 1.03838E-4
11337.890625; 1.08644E-4
11343.750000; 1.07025E-4
11349.609375; 1.10912E-4
11355.468750; 1.12726E-4
11361.328125; 1.08487E-4
11367.187500; 1.07863E-4
11373.046875; 1.11853E-4
11378.906250; 1.09047E-4
11384.765625; 1.07194E-4
11390.625000; 1.15421E-4
11396.484375; 1.09887E-4
11402.343750; 1.00635E-4
11408.203125; 1.10543E-4
11414.062500; 1.00812E-4
11419.921875; 1.07283E-4
11425.781250; 1.07750E-4
11431.640625; 1.08311E-4
11437.500000; 9.92531E-5
11443.359375; 9.86006E-5
11449.218750; 1.02695E-4
11455.078125; 9.80710E-5
11460.937500; 1.04014E-4
11466.796875; 1.05971E-4
11472.656250; 1.08780E-4
11478.515625; 1.04345E-4
11484.375000; 1.05596E-4
11490.234375; 1.01693E-4
11496.093750; 1.04889E-4
11501.953125; 1.15899E-4
11507.812500; 1.04561E-4
11513.671875; 1.03430E-4
11519.531250; 9.88581E-5
11525.390625; 1.05219E-4
11531.250000; 1.12249E-4
11537.109375; 1.03915E-4
11542.968750; 9.70330E-5
11548.828125; 9.50610E-5
11554.687500; 1.05611E-4
11560.546875; 1.05919E-4
11566.406250; 1.09462E-4
11572.265625; 1.14256E-4
11578.125000; 1.00350E-4
11583.984375; 1.02717E-4
11589.843750; 1.08560E-4
11595.703125; 9.98591E-5
11601.562500; 9.79984E-5
11607.421875; 1.11292E-4
11613.281250; 1.08432E-4
11619.140625; 1.09050E-4
11625.000000; 1.08918E-4
11630.859375; 1.04892E-4
11636.718750; 1.00779E-4
11642.578125; 1.05238E-4
11648.437500; 1.13145E-4
11654.296875; 1.07470E-4
11660.156250; 1.06677E-4
11666.015625; 1.06417E-4
11671.875000; 1.09586E-4
11677.734375; 1.10689E-4
11683.593750; 1.08290E-4
11689.453125; 1.08168E-4
11695.312500; 1.03460E-4
11701.171875; 1.06387E-4
11707.031250; 1.16224E-4
11712.890625; 1.01404E-4
11718.750000; 9.59587E-5
11724.609375; 1.07211E-4
11730.468750; 1.06728E-4
11736.328125; 1.11664E-4
11742.187500; 1.00652E-4
11748.046875; 1.01195E-4
11753.906250; 1.00172E-4
11759.765625; 1.04863E-4
11765.625000; 1.13016E-4
11771.484375; 9.95925E-5
11777.343750; 9.21085E-5
11783.203125; 1.02415E-4
11789.062500; 1.08349E-4
11794.921875; 1.07592E-4
11800.781250; 9.92723E-5
11806.640625; 1.08108E-4
11812.500000; 1.06921E-4
11818.359375; 9.94573E-5
11824.218750; 9.94844E-5
11830.078125; 1.04094E-4
11835.937500; 1.08579E-4
11841.796875; 1.12530E-4
11847.656250; 1.07635E-4
11853.515625; 1.06909E-4
11859.375000; 1.00831E-4
11865.234375; 1.04168E-4
11871.093750; 1.07617E-4
11876.953125; 9.64369E-5
11882.812500; 9.44661E-5
11888.671875; 1.03276E-4
11894.531250; 1.06234E-4
11900.390625; 1.18450E-4
11906.250000; 1.07620E-4
11912.109375; 1.04489E-4
11917.968750; 1.03578E-4
11923.828125; 1.04909E-4
11929.687500; 1.15279E-4
11935.546875; 1.06276E-4
11941.406250; 1.01160E-4
11947.265625; 1.12698E-4
11953.125000; 1.12378E-4
11958.984375; 1.12452E-4
11964.843750; 1.11225E-4
11970.703125; 1.10263E-4
11976.562500; 1.16432E-4
11982.421875; 1.23599E-4
11988.281250; 1.09173E-4
11994.140625; 9.65227E-5
12000.000000; 9.70333E-5
12005.859375; 1.14908E-4
12011.718750; 1.09421E-4
12017.578125; 9.80634E-5
12023.437500; 9.91739E-5
12029.296875; 1.02764E-4
12035.156250; 1.00422E-4
12041.015625; 1.01515E-4
12046.875000; 9.04273E-5
12052.734375; 9.91516E-5
12058.593750; 1.06396E-4
12064.453125; 1.03812E-4
12070.312500; 1.04749E-4
12076.171875; 1.07321E-4
12082.031250; 1.08759E-4
12087.890625; 1.07387E-4
12093.750000; 1.03934E-4
12099.609375; 1.03885E-4
12105.468750; 1.05690E-4
12111.328125; 1.02315E-4
12117.187500; 9.76572E-5
12123.046875; 1.02398E-4
12128.906250; 1.04722E-4
12134.765625; 9.89102E-5
12140.625000; 1.04410E-4
12146.484375; 1.04881E-4
12152.343750; 1.09473E-4
12158.203125; 1.08698E-4
12164.062500; 1.09598E-4
12169.921875; 1.05787E-4
12175.781250; 1.23127E-4
12181.640625; 1.10954E-4
12187.500000; 1.04686E-4
12193.359375; 1.04491E-4
12199.218750; 1.07688E-4
12205.078125; 1.13890E-4
12210.937500; 1.13928E-4
12216.796875; 1.20245E-4
12222.656250; 1.16409E-4
12228.515625; 1.15422E-4
12234.375000; 1.12821E-4
12240.234375; 1.02449E-4
12246.093750; 9.71955E-5
12251.953125; 1.02624E-4
12257.812500; 1.04742E-4
12263.671875; 1.03638E-4
12269.531250; 9.53575E-5
12275.390625; 1.08169E-4
12281.250000; 1.02149E-4
12287.109375; 9.51046E-5
12292.968750; 1.06421E-4
12298.828125; 1.13629E-4
12304.687500; 1.08239E-4
12310.546875; 1.10800E-4
12316.406250; 1.15288E-4
12322.265625; 1.10076E-4
12328.125000; 1.15834E-4
12333.984375; 1.13310E-4
12339.843750; 1.01476E-4
12345.703125; 1.02299E-4
12351.562500; 1.10717E-4
12357.421875; 1.13414E-4
12363.281250; 1.09920E-4
12369.140625; 1.08018E-4
12375.000000; 1.20722E-4
12380.859375; 1.28665E-4
12386.718750; 1.12231E-4
12392.578125; 1.11389E-4
12398.437500; 1.11970E-4
12404.296875; 1.02222E-4
12410.156250; 1.02256E-4
12416.015625; 1.13941E-4
12421.875000; 1.16215E-4
12427.734375; 1.07227E-4
12433.593750; 1.05432E-4
12439.453125; 1.04538E-4
12445.312500; 1.16160E-4
12451.171875; 1.12399E-4
12457.031250; 1.04698E-4
12462.890625; 9.74585E-5
12468.750000; 1.04370E-4
12474.609375; 1.10568E-4
12480.468750; 1.06518E-4
12486.328125; 1.07870E-4
12492.187500; 1.09683E-4
12498.046875; 9.74529E-5
12503.906250; 9.56573E-5
12509.765625; 8.82548E-5
12515.625000; 1.05997E-4
12521.484375; 1.12902E-4
12527.343750; 1.05517E-4
12533.203125; 1.04095E-4
12539.062500; 1.16989E-4
12544.921875; 1.15058E-4
12550.781250; 9.73097E-5
12556.640625; 1.07238E-4
12562.500000; 1.09034E-4
12568.359375; 1.06181E-4
12574.218750; 1.04401E-4
12580.078125; 9.92544E-5
12585.937500; 1.06750E-4
12591.796875; 1.08551E-4
12597.656250; 1.02798E-4
12603.515625; 1.11345E-4
12609.375000; 1.18002E-4
12615.234375; 1.21795E-4
12621.093750; 1.02145E-4
12626.953125; 9.47715E-5
12632.812500; 9.41676E-5
12638.671875; 1.07008E-4
12644.531250; 1.15821E-4
12650.390625; 1.00559E-4
12656.250000; 9.46902E-5
12662.109375; 9.84274E-5
12667.968750; 1.11363E-4
12673.828125; 1.18853E-4
12679.687500; 1.13858E-4
12685.546875; 1.03722E-4
12691.406250; 1.06954E-4
12697.265625; 1.07805E-4
12703.125000; 1.06501E-4
12708.984375; 1.06254E-4
12714.843750; 9.73458E-5
12720.703125; 1.11895E-4
12726.562500; 1.08895E-4
12732.421875; 1.00000E-4
12738.281250; 1.00509E-4
12744.140625; 9.76522E-5
12750.000000; 1.01268E-4
12755.859375; 1.06289E-4
12761.718750; 1.00872E-4
12767.578125; 9.70950E-5
12773.437500; 8.93357E-5
12779.296875; 9.89232E-5
12785.156250; 1.20693E-4
12791.015625; 1.06005E-4
12796.875000; 1.09513E-4
12802.734375; 1.03334E-4
12808.593750; 1.04532E-4
12814.453125; 1.05315E-4
12820.312500; 1.03147E-4
12826.171875; 1.04406E-4
12832.031250; 1.06083E-4
12837.890625; 1.04304E-4
12843.750000; 9.81988E-5
12849.609375; 9.10383E-5
12855.468750; 9.31406E-5
12861.328125; 1.03028E-4
12867.187500; 1.01363E-4
12873.046875; 9.70173E-5
12878.906250; 1.03006E-4
12884.765625; 1.14443E-4
12890.625000; 9.77384E-5
12896.484375; 9.69722E-5
12902.343750; 1.20802E-4
12908.203125; 1.20589E-4
12914.062500; 1.14473E-4
12919.921875; 1.11013E-4
12925.781250; 1.03795E-4
12931.640625; 1.03694E-4
12937.500000; 1.02887E-4
12943.359375; 1.04569E-4
12949.218750; 1.05055E-4
12955.078125; 9.78238E-5
12960.937500; 1.04089E-4
12966.796875; 1.12471E-4
12972.656250; 1.05140E-4
12978.515625; 9.48509E-5
12984.375000; 1.05786E-4
12990.234375; 1.08292E-4
12996.093750; 9.72080E-5
13001.953125; 9.49425E-5
13007.812500; 1.03151E-4
13013.671875; 1.06913E-4
13019.531250; 1.10737E-4
13025.390625; 1.09421E-4
13031.250000; 1.02316E-4
13037.109375; 1.06390E-4
13042.968750; 9.99637E-5
13048.828125; 1.08909E-4
13054.687500; 1.08763E-4
13060.546875; 1.06839E-4
13066.406250; 1.12482E-4
13072.265625; 1.09654E-4
13078.125000; 1.18374E-4
13083.984375; 1.16744E-4
13089.843750; 1.00082E-4
13095.703125; 9.33879E-5
13101.562500; 1.08374E-4
13107.421875; 1.08654E-4
13113.281250; 1.00206E-4
13119.140625; 1.01627E-4
13125.000000; 9.53542E-5
13130.859375; 9.70402E-5
13136.718750; 9.91427E-5
13142.578125; 1.03184E-4
13148.437500; 1.11829E-4
13154.296875; 1.01242E-4
13160.156250; 9.80685E-5
13166.015625; 1.01463E-4
13171.875000; 1.06127E-4
13177.734375; 9.74196E-5
13183.593750; 9.53483E-5
13189.453125; 9.55974E-5
13195.312500; 8.95282E-5
13201.171875; 9.82872E-5
13207.031250; 9.09535E-5
13212.890625; 1.02161E-4
13218.750000; 1.08308E-4
13224.609375; 9.77967E-5
13230.468750; 9.87403E-5
13236.328125; 1.01232E-4
13242.187500; 1.07846E-4
13248.046875; 1.15371E-4
13253.906250; 1.02845E-4
13259.765625; 1.01405E-4
13265.625000; 1.07601E-4
13271.484375; 1.18489E-4
13277.343750; 1.12741E-4
13283.203125; 1.00168E-4
13289.062500; 1.02504E-4
13294.921875; 9.07778E-5
13300.781250; 1.07030E-4
13306.640625; 1.07186E-4
13312.500000; 9.03520E-5
13318.359375; 1.00554E-4
13324.218750; 1.11020E-4
13330.078125; 1.14531E-4
13335.937500; 1.10838E-4
13341.796875; 9.55614E-5
13347.656250; 1.07911E-4
13353.515625; 1.03644E-4
13359.375000; 1.00339E-4
13365.234375; 1.03397E-4
13371.093750; 1.04423E-4
13376.953125; 1.12064E-4
13382.812500; 1.13612E-4
13388.671875; 9.72912E-5
13394.531250; 1.07871E-4
13400.390625; 1.11673E-4
13406.250000; 1.15675E-4
13412.109375; 9.97235E-5
13417.968750; 1.11246E-4
13423.828125; 1.18578E-4
13429.687500; 1.16928E-4
13435.546875; 1.20145E-4
13441.406250; 1.02657E-4
13447.265625; 1.01358E-4
13453.125000; 1.05694E-4
13458.984375; 9.59342E-5
13464.843750; 9.70122E-5
13470.703125; 9.93388E-5
13476.562500; 1.04801E-4
13482.421875; 1.03662E-4
13488.281250; 1.04336E-4
13494.140625; 1.12106E-4
13500.000000; 1.00759E-4
13505.859375; 1.01071E-4
13511.718750; 1.18389E-4
13517.578125; 1.02756E-4
13523.437500; 9.62541E-5
13529.296875; 1.04488E-4
13535.156250; 9.94010E-5
13541.015625; 1.04162E-4
13546.875000; 1.04691E-4
13552.734375; 1.04566E-4
13558.593750; 9.81244E-5
13564.453125; 9.63426E-5
13570.312500; 1.16534E-4
13576.171875; 1.15531E-4
13582.031250; 1.18661E-4
13587.890625; 1.18446E-4
13593.750000; 1.14146E-4
13599.609375; 1.16716E-4
13605.468750; 1.12597E-4
13611.328125; 1.15672E-4
13617.187500; 1.14163E-4
13623.046875; 1.15739E-4
13628.906250; 1.03444E-4
13634.765625; 9.42882E-5
13640.625000; 8.83183E-5
13646.484375; 9.37411E-5
13652.343750; 9.81768E-5
13658.203125; 9.84077E-5
13664.062500; 1.12317E-4
13669.921875; 1.18100E-4
13675.781250; 1.07926E-4
13681.640625; 1.04535E-4
13687.500000; 1.11034E-4
13693.359375; 1.12508E-4
13699.218750; 1.15841E-4
13705.078125; 1.09449E-4
13710.937500; 1.00162E-4
13716.796875; 1.09025E-4
13722.656250; 1.09788E-4
13728.515625; 9.92473E-5
13734.375000; 1.12628E-4
13740.234375; 1.17111E-4
13746.093750; 1.16637E-4
13751.953125; 1.09256E-4
13757.812500; 9.83670E-5
13763.671875; 1.03820E-4
13769.531250; 9.64002E-5
13775.390625; 1.17999E-4
13781.250000; 1.02095E-4
13787.109375; 1.03435E-4
13792.968750; 1.05302E-4
13798.828125; 1.01199E-4
13804.687500; 1.10065E-4
13810.546875; 1.07511E-4
13816.406250; 1.00818E-4
13822.265625; 1.11167E-4
13828.125000; 1.07395E-4
13833.984375; 9.93821E-5
13839.843750; 1.08041E-4
13845.703125; 1.13570E-4
13851.562500; 1.16570E-4
13857.421875; 1.01888E-4
13863.281250; 1.01161E-4
13869.140625; 9.93609E-5
13875.000000; 1.07195E-4
13880.859375; 1.05007E-4
13886.718750; 1.20977E-4
13892.578125; 1.19726E-4
13898.437500; 1.05913E-4
13904.296875; 1.02456E-4
13910.156250; 9.68880E-5
13916.015625; 1.12128E-4
13921.875000; 1.11418E-4
13927.734375; 1.01778E-4
13933.593750; 1.04950E-4
13939.453125; 9.84332E-5
13945.312500; 1.03179E-4
13951.171875; 1.12305E-4
13957.031250; 1.07836E-4
13962.890625; 9.51697E-5
13968.750000; 1.07640E-4
13974.609375; 1.03533E-4
13980.468750; 9.96827E-5
13986.328125; 1.04960E-4
13992.187500; 1.09023E-4
13998.046875; 1.06199E-4
14003.906250; 1.07728E-4
14009.765625; 1.06852E-4
14015.625000; 1.09274E-4
14021.484375; 1.04784E-4
14027.343750; 1.02664E-4
14033.203125; 1.19595E-4
14039.062500; 1.25749E-4
14044.921875; 1.10434E-4
14050.781250; 1.01668E-4
14056.640625; 1.01640E-4
14062.500000; 1.01331E-4
14068.359375; 1.10520E-4
14074.218750; 1.17599E-4
14080.078125; 1.05715E-4
14085.937500; 1.07964E-4
14091.796875; 1.01950E-4
14097.656250; 1.10640E-4
14103.515625; 9.95260E-5
14109.375000; 9.93876E-5
14115.234375; 9.91891E-5
14121.093750; 9.46596E-5
14126.953125; 9.27110E-5
14132.812500; 1.10757E-4
14138.671875; 1.10615E-4
14144.531250; 9.71815E-5
14150.390625; 1.00678E-4
14156.250000; 1.16877E-4
14162.109375; 1.26896E-4
14167.968750; 1.19663E-4
14173.828125; 1.13055E-4
14179.687500; 1.23553E-4
14185.546875; 1.10277E-4
14191.406250; 1.09704E-4
14197.265625; 9.69964E-5
14203.125000; 1.01717E-4
14208.984375; 1.05917E-4
14214.843750; 1.10765E-4
14220.703125; 1.18579E-4
14226.562500; 1.11434E-4
14232.421875; 1.01852E-4
14238.281250; 1.06192E-4
14244.140625; 9.46426E-5
14250.000000; 9.94899E-5
14255.859375; 1.04576E-4
14261.718750; 9.88825E-5
14267.578125; 1.00962E-4
14273.437500; 1.06485E-4
14279.296875; 1.01892E-4
14285.156250; 9.67900E-5
14291.015625; 1.14993E-4
14296.875000; 1.25746E-4
14302.734375; 1.16103E-4
14308.593750; 1.09355E-4
14314.453125; 1.04570E-4
14320.312500; 1.06334E-4
14326.171875; 1.07320E-4
14332.031250; 9.62488E-5
14337.890625; 1.08583E-4
14343.750000; 1.13657E-4
14349.609375; 1.03992E-4
14355.468750; 1.01853E-4
14361.328125; 1.11809E-4
14367.187500; 1.19886E-4
14373.046875; 1.06948E-4
14378.906250; 1.04063E-4
14384.765625; 1.05222E-4
14390.625000; 1.09307E-4
14396.484375; 9.13721E-5
14402.343750; 9.51736E-5
14408.203125; 1.04791E-4
14414.062500; 1.04648E-4
14419.921875; 1.05976E-4
14425.781250; 9.99638E-5
14431.640625; 9.90713E-5
14437.500000; 1.06508E-4
14443.359375; 1.02189E-4
14449.218750; 9.36882E-5
14455.078125; 1.01848E-4
14460.937500; 1.02835E-4
14466.796875; 1.08652E-4
14472.656250; 9.79163E-5
14478.515625; 1.02774E-4
14484.375000; 1.06030E-4
14490.234375; 1.00309E-4
14496.093750; 1.02803E-4
14501.953125; 1.02606E-4
14507.812500; 1.01877E-4
14513.671875; 1.04015E-4
14519.531250; 1.04579E-4
14525.390625; 1.04919E-4
14531.250000; 1.07547E-4
14537.109375; 1.05819E-4
14542.968750; 1.01483E-4
14548.828125; 1.08641E-4
14554.687500; 1.02606E-4
14560.546875; 1.12485E-4
14566.406250; 1.11469E-4
14572.265625; 1.00255E-4
14578.125000; 1.01231E-4
14583.984375; 9.93991E-5
14589.843750; 1.03514E-4
14595.703125; 1.09107E-4
14601.562500; 1.04770E-4
14607.421875; 9.88325E-5
14613.281250; 1.03557E-4
14619.140625; 1.17145E-4
14625.000000; 1.14621E-4
14630.859375; 1.02014E-4
14636.718750; 1.09956E-4
14642.578125; 1.16389E-4
14648.437500; 1.04940E-4
14654.296875; 1.02644E-4
14660.156250; 1.13259E-4
14666.015625; 1.13080E-4
14671.875000; 1.20371E-4
14677.734375; 1.18724E-4
14683.593750; 1.09929E-4
14689.453125; 1.00907E-4
14695.312500; 9.29135E-5
14701.171875; 9.27279E-5
14707.031250; 1.00660E-4
14712.890625; 1.09805E-4
14718.750000; 1.16546E-4
14724.609375; 1.07878E-4
14730.468750; 1.18798E-4
14736.328125; 1.15372E-4
14742.187500; 1.04085E-4
14748.046875; 1.05437E-4
14753.906250; 1.07638E-4
14759.765625; 1.03547E-4
14765.625000; 1.07616E-4
14771.484375; 1.14093E-4
14777.343750; 1.11604E-4
14783.203125; 1.18088E-4
14789.062500; 1.13445E-4
14794.921875; 1.16952E-4
14800.781250; 1.19662E-4
14806.640625; 1.01328E-4
14812.500000; 9.62583E-5
14818.359375; 9.78425E-5
14824.218750; 9.86471E-5
14830.078125; 1.15578E-4
14835.937500; 1.15862E-4
14841.796875; 1.02943E-4
14847.656250; 1.01817E-4
14853.515625; 9.57475E-5
14859.375000; 9.77400E-5
14865.234375; 1.05283E-4
14871.093750; 1.08199E-4
14876.953125; 1.03300E-4
14882.812500; 1.03058E-4
14888.671875; 1.02769E-4
14894.531250; 1.00596E-4
14900.390625; 9.53686E-5
14906.250000; 9.57227E-5
14912.109375; 1.09650E-4
14917.968750; 1.12206E-4
14923.828125; 1.05704E-4
14929.687500; 1.11092E-4
14935.546875; 1.08914E-4
14941.406250; 1.02807E-4
14947.265625; 1.04970E-4
14953.125000; 1.08071E-4
14958.984375; 9.48348E-5
14964.843750; 1.03017E-4
14970.703125; 1.04598E-4
14976.562500; 9.94953E-5
14982.421875; 1.08781E-4
14988.281250; 9.75989E-5
14994.140625; 9.66073E-5
15000.000000; 1.03595E-4
15005.859375; 1.02945E-4
15011.718750; 9.89012E-5
15017.578125; 1.10887E-4
15023.437500; 9.93234E-5
15029.296875; 1.07941E-4
15035.156250; 1.10046E-4
15041.015625; 1.01243E-4
15046.875000; 1.03785E-4
15052.734375; 1.11006E-4
15058.593750; 1.04837E-4
15064.453125; 1.00226E-4
15070.312500; 1.00324E-4
15076.171875; 9.86796E-5
15082.031250; 1.10854E-4
15087.890625; 1.01471E-4
15093.750000; 9.43432E-5
15099.609375; 9.79861E-5
15105.468750; 1.05375E-4
15111.328125; 1.02068E-4
15117.187500; 9.30107E-5
15123.046875; 1.04369E-4
15128.906250; 1.11840E-4
15134.765625; 1.23446E-4
15140.625000; 1.13015E-4
15146.484375; 9.34558E-5
15152.343750; 9.76697E-5
15158.203125; 1.07511E-4
15164.062500; 1.12350E-4
15169.921875; 1.21177E-4
15175.781250; 1.12336E-4
15181.640625; 1.08113E-4
15187.500000; 1.02900E-4
15193.359375; 1.03361E-4
15199.218750; 1.04095E-4
15205.078125; 1.06851E-4
15210.937500; 1.14315E-4
15216.796875; 1.06440E-4
15222.656250; 9.97509E-5
15228.515625; 9.97177E-5
15234.375000; 1.04792E-4
15240.234375; 1.07302E-4
15246.093750; 1.10167E-4
15251.953125; 1.08835E-4
15257.812500; 1.16158E-4
15263.671875; 1.03401E-4
15269.531250; 9.22513E-5
15275.390625; 1.01447E-4
15281.250000; 1.07499E-4
15287.109375; 1.12034E-4
15292.968750; 1.06014E-4
15298.828125; 1.09672E-4
15304.687500; 1.10901E-4
15310.546875; 1.02853E-4
15316.406250; 1.06496E-4
15322.265625; 1.08892E-4
15328.125000; 1.14178E-4
15333.984375; 1.00018E-4
15339.843750; 8.56191E-5
15345.703125; 9.46158E-5
15351.562500; 1.04651E-4
15357.421875; 1.13097E-4
15363.281250; 1.18122E-4
15369.140625; 1.09698E-4
15375.000000; 1.03712E-4
15380.859375; 1.01354E-4
15386.718750; 1.13097E-4
15392.578125; 1.21585E-4
15398.437500; 1.07488E-4
15404.296875; 1.04278E-4
15410.156250; 9.06446E-5
15416.015625; 1.08963E-4
15421.875000; 1.12315E-4
15427.734375; 9.47314E-5
15433.593750; 9.93965E-5
15439.453125; 1.12448E-4
15445.312500; 1.10490E-4
15451.171875; 1.12303E-4
15457.031250; 1.12426E-4
15462.890625; 9.78843E-5
15468.750000; 9.37588E-5
15474.609375; 1.00290E-4
15480.468750; 9.89115E-5
15486.328125; 1.03978E-4
15492.187500; 1.08524E-4
15498.046875; 9.99492E-5
15503.906250; 1.02114E-4
15509.765625; 1.04038E-4
15515.625000; 9.49368E-5
15521.484375; 1.08023E-4
15527.343750; 9.89151E-5
15533.203125; 1.08254E-4
15539.062500; 1.09462E-4
15544.921875; 1.06209E-4
15550.781250; 1.04025E-4
15556.640625; 9.87854E-5
15562.500000; 1.09086E-4
15568.359375; 1.02704E-4
15574.218750; 9.78015E-5
15580.078125; 1.03722E-4
15585.937500; 1.10959E-4
15591.796875; 1.03194E-4
15597.656250; 1.00095E-4
15603.515625; 1.06551E-4
15609.375000; 1.08123E-4
15615.234375; 1.17230E-4
15621.093750; 1.10524E-4
15626.953125; 9.82601E-5
15632.812500; 9.22185E-5
15638.671875; 9.93068E-5
15644.531250; 1.02143E-4
15650.390625; 9.44097E-5
15656.250000; 1.10031E-4
15662.109375; 1.11041E-4
15667.968750; 9.69385E-5
15673.828125; 9.72484E-5
15679.687500; 9.60093E-5
15685.546875; 9.10116E-5
15691.406250; 9.54338E-5
15697.265625; 9.81661E-5
15703.125000; 9.51952E-5
15708.984375; 9.59736E-5
15714.843750; 1.04649E-4
15720.703125; 1.07568E-4
15726.562500; 9.94814E-5
15732.421875; 1.05225E-4
15738.281250; 1.03224E-4
15744.140625; 1.11517E-4
15750.000000; 1.08468E-4
15755.859375; 1.00922E-4
15761.718750; 1.01811E-4
15767.578125; 1.05017E-4
15773.437500; 1.10022E-4
15779.296875; 1.04404E-4
15785.156250; 1.02922E-4
15791.015625; 1.05920E-4
15796.875000; 9.82600E-5
15802.734375; 1.10760E-4
15808.593750; 1.13109E-4
15814.453125; 9.90599E-5
15820.312500; 1.03888E-4
15826.171875; 1.05239E-4
15832.031250; 1.05172E-4
15837.890625; 1.03695E-4
15843.750000; 9.78862E-5
15849.609375; 1.09227E-4
15855.468750; 1.09787E-4
15861.328125; 9.58665E-5
15867.187500; 9.43681E-5
15873.046875; 8.75777E-5
15878.906250; 8.76885E-5
15884.765625; 9.79926E-5
15890.625000; 9.36238E-5
15896.484375; 8.22655E-5
15902.343750; 8.94283E-5
15908.203125; 9.66606E-5
15914.062500; 1.05343E-4
15919.921875; 1.07826E-4
15925.781250; 1.07612E-4
15931.640625; 1.00842E-4
15937.500000; 1.05279E-4
15943.359375; 1.03869E-4
15949.218750; 9.93871E-5
15955.078125; 1.09409E-4
15960.937500; 1.11309E-4
15966.796875; 1.03774E-4
15972.656250; 1.08803E-4
15978.515625; 1.06659E-4
15984.375000; 1.14008E-4
15990.234375; 1.03553E-4
15996.093750; 1.06418E-4
16001.953125; 9.63664E-5
16007.812500; 9.42670E-5
16013.671875; 1.01438E-4
16019.531250; 9.96874E-5
16025.390625; 9.74776E-5
16031.250000; 9.78925E-5
16037.109375; 1.00921E-4
16042.968750; 1.04652E-4
16048.828125; 1.06071E-4
16054.687500; 9.44184E-5
16060.546875; 1.02790E-4
16066.406250; 1.10775E-4
16072.265625; 1.17542E-4
16078.125000; 1.08250E-4
16083.984375; 9.88885E-5
16089.843750; 1.01501E-4
16095.703125; 9.91770E-5
16101.562500; 1.02524E-4
16107.421875; 1.07180E-4
16113.281250; 1.00795E-4
16119.140625; 1.11080E-4
16125.000000; 1.18580E-4
16130.859375; 1.12508E-4
16136.718750; 1.10067E-4
16142.578125; 1.15934E-4
16148.437500; 1.08334E-4
16154.296875; 1.02963E-4
16160.156250; 1.06771E-4
16166.015625; 1.05875E-4
16171.875000; 1.01712E-4
16177.734375; 1.04957E-4
16183.593750; 1.01843E-4
16189.453125; 9.14942E-5
16195.312500; 9.95469E-5
16201.171875; 1.04750E-4
16207.031250; 1.07162E-4
16212.890625; 1.03167E-4
16218.750000; 1.09536E-4
16224.609375; 1.02550E-4
16230.468750; 1.06698E-4
16236.328125; 1.05290E-4
16242.187500; 1.10961E-4
16248.046875; 1.12020E-4
16253.906250; 1.03032E-4
16259.765625; 1.03176E-4
16265.625000; 1.11529E-4
16271.484375; 1.06333E-4
16277.343750; 9.38991E-5
16283.203125; 1.03392E-4
16289.062500; 1.05258E-4
16294.921875; 9.21715E-5
16300.781250; 1.04604E-4
16306.640625; 1.03748E-4
16312.500000; 1.08589E-4
16318.359375; 1.22409E-4
16324.218750; 1.08603E-4
16330.078125; 9.18560E-5
16335.937500; 9.33952E-5
16341.796875; 9.95417E-5
16347.656250; 9.65651E-5
16353.515625; 8.75165E-5
16359.375000; 9.97666E-5
16365.234375; 1.00830E-4
16371.093750; 1.02529E-4
16376.953125; 1.05353E-4
16382.812500; 9.40718E-5
16388.671875; 9.03262E-5
16394.531250; 1.01993E-4
16400.390625; 1.05717E-4
16406.250000; 1.08870E-4
16412.109375; 9.18223E-5
16417.968750; 1.01266E-4
16423.828125; 1.14296E-4
16429.687500; 1.11391E-4
16435.546875; 1.05204E-4
16441.406250; 1.12136E-4
16447.265625; 9.84111E-5
16453.125000; 9.17204E-5
16458.984375; 9.96752E-5
16464.843750; 9.68968E-5
16470.703125; 9.91932E-5
16476.562500; 1.00067E-4
16482.421875; 1.00733E-4
16488.281250; 1.15185E-4
16494.140625; 1.12134E-4
16500.000000; 1.09207E-4
16505.859375; 1.23848E-4
16511.718750; 1.13143E-4
16517.578125; 1.12410E-4
16523.437500; 1.10256E-4
16529.296875; 1.07946E-4
16535.156250; 1.00987E-4
16541.015625; 9.98742E-5
16546.875000; 1.01753E-4
16552.734375; 1.04985E-4
16558.593750; 9.82993E-5
16564.453125; 1.01638E-4
16570.312500; 1.04616E-4
16576.171875; 1.08120E-4
16582.031250; 1.06012E-4
16587.890625; 9.36087E-5
16593.750000; 9.68349E-5
16599.609375; 1.06883E-4
16605.468750; 9.53036E-5
16611.328125; 8.98853E-5
16617.187500; 1.06367E-4
16623.046875; 1.06821E-4
16628.906250; 9.86829E-5
16634.765625; 9.72144E-5
16640.625000; 1.07560E-4
16646.484375; 1.11750E-4
16652.343750; 9.81547E-5
16658.203125; 9.25529E-5
16664.062500; 9.81470E-5
16669.921875; 8.65919E-5
16675.781250; 1.07410E-4
16681.640625; 1.09168E-4
16687.500000; 9.69739E-5
16693.359375; 1.09152E-4
16699.218750; 1.12402E-4
16705.078125; 1.11129E-4
16710.937500; 1.04994E-4
16716.796875; 1.01044E-4
16722.656250; 1.01144E-4
16728.515625; 1.03873E-4
16734.375000; 1.02184E-4
16740.234375; 1.00620E-4
16746.093750; 1.03316E-4
16751.953125; 1.10828E-4
16757.812500; 1.11690E-4
16763.671875; 1.06168E-4
16769.531250; 1.02379E-4
16775.390625; 1.06509E-4
16781.250000; 1.01586E-4
16787.109375; 1.05554E-4
16792.968750; 1.07009E-4
16798.828125; 1.01230E-4
16804.687500; 1.09317E-4
16810.546875; 1.05942E-4
16816.406250; 1.16087E-4
16822.265625; 1.03766E-4
16828.125000; 1.10743E-4
16833.984375; 1.06397E-4
16839.843750; 1.07318E-4
16845.703125; 1.07810E-4
16851.562500; 1.09872E-4
16857.421875; 1.04160E-4
16863.281250; 1.13405E-4
16869.140625; 1.13063E-4
16875.000000; 1.10954E-4
16880.859375; 9.12746E-5
16886.718750; 1.00133E-4
16892.578125; 1.08610E-4
16898.437500; 1.11954E-4
16904.296875; 1.12894E-4
16910.156250; 1.25343E-4
16916.015625; 1.17339E-4
16921.875000; 1.12164E-4
16927.734375; 1.01458E-4
16933.593750; 1.02245E-4
16939.453125; 1.05098E-4
16945.312500; 1.07540E-4
16951.171875; 1.15211E-4
16957.031250; 9.84258E-5
16962.890625; 9.51573E-5
16968.750000; 1.06969E-4
16974.609375; 9.73701E-5
16980.468750; 9.38151E-5
16986.328125; 1.07333E-4
16992.187500; 1.02965E-4
16998.046875; 1.08273E-4
17003.906250; 1.03734E-4
17009.765625; 1.02012E-4
17015.625000; 9.71517E-5
17021.484375; 1.08326E-4
17027.343750; 1.16375E-4
17033.203125; 1.07733E-4
17039.062500; 1.12784E-4
17044.921875; 1.02188E-4
17050.781250; 9.65726E-5
17056.640625; 1.15035E-4
17062.500000; 1.20937E-4
17068.359375; 1.20647E-4
17074.218750; 1.21416E-4
17080.078125; 1.03476E-4
17085.937500; 1.00269E-4
17091.796875; 1.04537E-4
17097.656250; 9.62657E-5
17103.515625; 1.02315E-4
17109.375000; 9.68486E-5
17115.234375; 9.45052E-5
17121.093750; 9.91578E-5
17126.953125; 1.04481E-4
17132.812500; 1.04168E-4
17138.671875; 1.04626E-4
17144.531250; 1.05660E-4
17150.390625; 1.06457E-4
17156.250000; 9.63698E-5
17162.109375; 1.03188E-4
17167.968750; 1.05024E-4
17173.828125; 1.14392E-4
17179.687500; 1.21323E-4
17185.546875; 1.17559E-4
17191.406250; 1.10956E-4
17197.265625; 1.09495E-4
17203.125000; 1.09721E-4
17208.984375; 1.09156E-4
17214.843750; 1.11070E-4
17220.703125; 1.00999E-4
17226.562500; 1.08220E-4
17232.421875; 1.04334E-4
17238.281250; 9.35267E-5
17244.140625; 9.15458E-5
17250.000000; 1.05963E-4
17255.859375; 1.01741E-4
17261.718750; 1.01047E-4
17267.578125; 1.08203E-4
17273.437500; 1.06335E-4
17279.296875; 1.06193E-4
17285.156250; 1.09087E-4
17291.015625; 1.03001E-4
17296.875000; 1.12265E-4
17302.734375; 1.13940E-4
17308.593750; 1.13392E-4
17314.453125; 1.04460E-4
17320.312500; 9.78132E-5
17326.171875; 1.00122E-4
17332.031250; 1.02393E-4
17337.890625; 1.13374E-4
17343.750000; 1.08160E-4
17349.609375; 1.08423E-4
17355.468750; 9.91224E-5
17361.328125; 9.95876E-5
17367.187500; 1.10674E-4
17373.046875; 1.12217E-4
17378.906250; 1.19111E-4
17384.765625; 1.12000E-4
17390.625000; 9.93404E-5
17396.484375; 1.04550E-4
17402.343750; 1.05842E-4
17408.203125; 1.13684E-4
17414.062500; 1.18475E-4
17419.921875; 1.08022E-4
17425.781250; 9.68546E-5
17431.640625; 9.73281E-5
17437.500000; 1.01036E-4
17443.359375; 8.75922E-5
17449.218750; 1.03234E-4
17455.078125; 1.06709E-4
17460.937500; 9.83312E-5
17466.796875; 8.67647E-5
17472.656250; 9.68951E-5
17478.515625; 1.00378E-4
17484.375000; 9.86154E-5
17490.234375; 9.69228E-5
17496.093750; 9.60492E-5
17501.953125; 9.79061E-5
17507.812500; 1.08383E-4
17513.671875; 1.09003E-4
17519.531250; 9.37533E-5
17525.390625; 9.83880E-5
17531.250000; 1.04017E-4
17537.109375; 1.00587E-4
17542.968750; 1.08720E-4
17548.828125; 1.12099E-4
17554.687500; 1.02311E-4
17560.546875; 1.08816E-4
17566.406250; 1.12425E-4
17572.265625; 1.03235E-4
17578.125000; 9.23920E-5
17583.984375; 1.00091E-4
17589.843750; 9.68823E-5
17595.703125; 1.09280E-4
17601.562500; 1.08449E-4
17607.421875; 9.64294E-5
17613.281250; 8.97459E-5
17619.140625; 1.09071E-4
17625.000000; 1.20703E-4
17630.859375; 1.13155E-4
17636.718750; 9.94291E-5
17642.578125; 1.03279E-4
17648.437500; 1.00230E-4
17654.296875; 1.01391E-4
17660.156250; 1.00964E-4
17666.015625; 1.00734E-4
17671.875000; 1.07642E-4
17677.734375; 1.10036E-4
17683.593750; 1.04546E-4
17689.453125; 9.48453E-5
17695.312500; 1.01663E-4
17701.171875; 1.12691E-4
17707.031250; 1.04089E-4
17712.890625; 1.01468E-4
17718.750000; 1.03924E-4
17724.609375; 1.01191E-4
17730.468750; 1.02616E-4
17736.328125; 1.18676E-4
17742.187500; 1.20118E-4
17748.046875; 1.11005E-4
17753.906250; 1.18735E-4
17759.765625; 1.11026E-4
17765.625000; 1.00467E-4
17771.484375; 1.02217E-4
17777.343750; 1.08918E-4
17783.203125; 1.01496E-4
17789.062500; 9.67816E-5
17794.921875; 1.04834E-4
17800.781250; 1.06680E-4
17806.640625; 1.19468E-4
17812.500000; 1.06324E-4
17818.359375; 1.04540E-4
17824.218750; 1.09036E-4
17830.078125; 9.98100E-5
17835.937500; 1.06555E-4
17841.796875; 9.83553E-5
17847.656250; 9.22543E-5
17853.515625; 1.06481E-4
17859.375000; 1.12076E-4
17865.234375; 1.02350E-4
17871.093750; 1.02566E-4
17876.953125; 1.12055E-4
17882.812500; 1.20080E-4
17888.671875; 1.22746E-4
17894.531250; 1.20296E-4
17900.390625; 1.09266E-4
17906.250000; 1.04657E-4
17912.109375; 1.09263E-4
17917.968750; 1.09599E-4
17923.828125; 1.06602E-4
17929.687500; 1.19907E-4
17935.546875; 1.30750E-4
17941.406250; 1.06976E-4
17947.265625; 1.11990E-4
17953.125000; 1.14926E-4
17958.984375; 1.04147E-4
17964.843750; 1.06620E-4
17970.703125; 1.09772E-4
17976.562500; 1.16368E-4
17982.421875; 1.01119E-4
17988.281250; 1.03222E-4
17994.140625; 1.00474E-4
18000.000000; 1.06790E-4
18005.859375; 9.98286E-5
18011.718750; 9.96646E-5
18017.578125; 1.04467E-4
18023.437500; 9.42716E-5
18029.296875; 1.04059E-4
18035.156250; 1.04523E-4
18041.015625; 1.09720E-4
18046.875000; 1.04627E-4
18052.734375; 9.94662E-5
18058.593750; 1.13808E-4
18064.453125; 1.20942E-4
18070.312500; 1.13719E-4
18076.171875; 1.14285E-4
18082.031250; 1.05241E-4
18087.890625; 1.03731E-4
18093.750000; 1.15662E-4
18099.609375; 1.06665E-4
18105.468750; 1.04295E-4
18111.328125; 1.08698E-4
18117.187500; 1.11626E-4
18123.046875; 1.00396E-4
18128.906250; 1.05746E-4
18134.765625; 1.09680E-4
18140.625000; 9.93971E-5
18146.484375; 9.68064E-5
18152.343750; 1.13894E-4
18158.203125; 1.13412E-4
18164.062500; 1.18235E-4
18169.921875; 1.20632E-4
18175.781250; 9.89882E-5
18181.640625; 1.06199E-4
18187.500000; 1.02685E-4
18193.359375; 1.08581E-4
18199.218750; 1.12391E-4
18205.078125; 1.10257E-4
18210.937500; 1.12457E-4
18216.796875; 1.11475E-4
18222.656250; 1.00383E-4
18228.515625; 9.29508E-5
18234.375000; 1.02168E-4
18240.234375; 1.03319E-4
18246.093750; 1.01071E-4
18251.953125; 1.00135E-4
18257.812500; 1.02497E-4
18263.671875; 1.04213E-4
18269.531250; 9.98611E-5
18275.390625; 1.04895E-4
18281.250000; 1.11768E-4
18287.109375; 1.13701E-4
18292.968750; 1.05984E-4
18298.828125; 1.06895E-4
18304.687500; 1.07220E-4
18310.546875; 1.01255E-4
18316.406250; 1.06504E-4
18322.265625; 1.08813E-4
18328.125000; 1.03401E-4
18333.984375; 1.04911E-4
18339.843750; 1.00034E-4
18345.703125; 1.03775E-4
18351.562500; 9.30306E-5
18357.421875; 7.92088E-5
18363.281250; 9.59364E-5
18369.140625; 1.03728E-4
18375.000000; 1.11374E-4
18380.859375; 1.12391E-4
18386.718750; 1.03529E-4
18392.578125; 1.03132E-4
18398.437500; 1.07320E-4
18404.296875; 1.12965E-4
18410.156250; 1.15563E-4
18416.015625; 1.07959E-4
18421.875000; 9.80251E-5
18427.734375; 9.84104E-5
18433.593750; 9.70686E-5
18439.453125; 9.68281E-5
18445.312500; 1.04704E-4
18451.171875; 1.06057E-4
18457.031250; 1.04566E-4
18462.890625; 9.22318E-5
18468.750000; 9.93126E-5
18474.609375; 1.10165E-4
18480.468750; 1.15845E-4
18486.328125; 1.06280E-4
18492.187500; 1.07005E-4
18498.046875; 1.18468E-4
18503.906250; 1.17914E-4
18509.765625; 1.09072E-4
18515.625000; 1.06844E-4
18521.484375; 9.35642E-5
18527.343750; 9.58172E-5
18533.203125; 1.04158E-4
18539.062500; 1.00646E-4
18544.921875; 1.18180E-4
18550.781250; 1.05739E-4
18556.640625; 1.03038E-4
18562.500000; 1.05291E-4
18568.359375; 1.08524E-4
18574.218750; 1.08445E-4
18580.078125; 1.14732E-4
18585.937500; 1.10422E-4
18591.796875; 1.18297E-4
18597.656250; 1.08597E-4
18603.515625; 1.12358E-4
18609.375000; 1.02956E-4
18615.234375; 1.01389E-4
18621.093750; 9.99085E-5
18626.953125; 8.82469E-5
18632.812500; 1.04979E-4
18638.671875; 1.12166E-4
18644.531250; 9.72111E-5
18650.390625; 9.81065E-5
18656.250000; 1.02082E-4
18662.109375; 1.00167E-4
18667.968750; 9.63918E-5
18673.828125; 8.89926E-5
18679.687500; 9.46907E-5
18685.546875; 1.04063E-4
18691.406250; 1.05647E-4
18697.265625; 1.11790E-4
18703.125000; 1.09967E-4
18708.984375; 1.02027E-4
18714.843750; 1.00050E-4
18720.703125; 1.08182E-4
18726.562500; 1.06611E-4
18732.421875; 1.01862E-4
18738.281250; 9.70056E-5
18744.140625; 1.01387E-4
18750.000000; 1.02483E-4
18755.859375; 1.00152E-4
18761.718750; 1.02021E-4
18767.578125; 1.08112E-4
18773.437500; 1.03529E-4
18779.296875; 9.19212E-5
18785.156250; 9.53701E-5
18791.015625; 1.01916E-4
18796.875000; 1.06194E-4
18802.734375; 1.16558E-4
18808.593750; 1.17115E-4
18814.453125; 1.09714E-4
18820.312500; 1.03744E-4
18826.171875; 1.16810E-4
18832.031250; 1.02685E-4
18837.890625; 9.90895E-5
18843.750000; 9.83083E-5
18849.609375; 1.02153E-4
18855.468750; 1.04499E-4
18861.328125; 1.02367E-4
18867.187500; 1.03592E-4
18873.046875; 1.04163E-4
18878.906250; 1.05079E-4
18884.765625; 1.11693E-4
18890.625000; 1.12474E-4
18896.484375; 1.09649E-4
18902.343750; 1.02695E-4
18908.203125; 1.00006E-4
18914.062500; 1.03132E-4
18919.921875; 9.98650E-5
18925.781250; 1.15391E-4
18931.640625; 1.13095E-4
18937.500000; 1.17032E-4
18943.359375; 1.06435E-4
18949.218750; 1.02152E-4
18955.078125; 1.07711E-4
18960.937500; 1.10698E-4
18966.796875; 1.03383E-4
18972.656250; 9.75704E-5
18978.515625; 1.05116E-4
18984.375000; 9.93296E-5
18990.234375; 1.05330E-4
18996.093750; 9.51567E-5
19001.953125; 9.76604E-5
19007.812500; 9.49184E-5
19013.671875; 8.74128E-5
19019.531250; 1.07943E-4
19025.390625; 1.07173E-4
19031.250000; 1.03328E-4
19037.109375; 1.05591E-4
19042.968750; 9.71170E-5
19048.828125; 1.14175E-4
19054.687500; 1.12336E-4
19060.546875; 9.24317E-5
19066.406250; 1.08824E-4
19072.265625; 1.00404E-4
19078.125000; 1.09813E-4
19083.984375; 1.08168E-4
19089.843750; 1.00410E-4
19095.703125; 1.01581E-4
19101.562500; 9.88507E-5
19107.421875; 1.00035E-4
19113.281250; 1.06928E-4
19119.140625; 1.05096E-4
19125.000000; 9.74354E-5
19130.859375; 1.12675E-4
19136.718750; 1.07786E-4
19142.578125; 1.02808E-4
19148.437500; 1.15265E-4
19154.296875; 1.15787E-4
19160.156250; 1.09329E-4
19166.015625; 1.02120E-4
19171.875000; 1.06508E-4
19177.734375; 1.08393E-4
19183.593750; 1.02030E-4
19189.453125; 1.02688E-4
19195.312500; 1.15790E-4
19201.171875; 1.18804E-4
19207.031250; 1.13148E-4
19212.890625; 1.13091E-4
19218.750000; 1.04911E-4
19224.609375; 1.00768E-4
19230.468750; 9.97142E-5
19236.328125; 9.21291E-5
19242.187500; 1.05110E-4
19248.046875; 1.06302E-4
19253.906250; 9.26724E-5
19259.765625; 9.54246E-5
19265.625000; 1.02965E-4
19271.484375; 1.08163E-4
19277.343750; 1.14764E-4
19283.203125; 1.09797E-4
19289.062500; 1.05293E-4
19294.921875; 1.13387E-4
19300.781250; 1.09846E-4
19306.640625; 1.09664E-4
19312.500000; 1.07040E-4
19318.359375; 1.02815E-4
19324.218750; 1.00325E-4
19330.078125; 8.74286E-5
19335.937500; 9.53915E-5
19341.796875; 1.06983E-4
19347.656250; 1.06830E-4
19353.515625; 1.02650E-4
19359.375000; 9.93092E-5
19365.234375; 9.87462E-5
19371.093750; 1.08212E-4
19376.953125; 1.06060E-4
19382.812500; 9.95934E-5
19388.671875; 9.93047E-5
19394.531250; 9.57294E-5
19400.390625; 9.58258E-5
19406.250000; 1.11529E-4
19412.109375; 1.08981E-4
19417.968750; 1.07822E-4
19423.828125; 1.06648E-4
19429.687500; 1.12121E-4
19435.546875; 1.08455E-4
19441.406250; 1.07242E-4
19447.265625; 1.06707E-4
19453.125000; 1.02615E-4
19458.984375; 1.14383E-4
19464.843750; 1.08216E-4
19470.703125; 1.00224E-4
19476.562500; 1.05896E-4
19482.421875; 1.03989E-4
19488.281250; 1.04378E-4
19494.140625; 1.10038E-4
19500.000000; 1.08983E-4
19505.859375; 1.06901E-4
19511.718750; 1.02297E-4
19517.578125; 1.01480E-4
19523.437500; 1.05470E-4
19529.296875; 1.07390E-4
19535.156250; 1.02336E-4
19541.015625; 1.04973E-4
19546.875000; 1.09671E-4
19552.734375; 1.17127E-4
19558.593750; 1.18716E-4
19564.453125; 1.00766E-4
19570.312500; 9.61538E-5
19576.171875; 1.08858E-4
19582.031250; 1.02482E-4
19587.890625; 8.47037E-5
19593.750000; 9.19147E-5
19599.609375; 9.77114E-5
19605.468750; 1.11848E-4
19611.328125; 1.14026E-4
19617.187500; 1.09298E-4
19623.046875; 1.07181E-4
19628.906250; 9.94133E-5
19634.765625; 9.07043E-5
19640.625000; 1.09614E-4
19646.484375; 1.07708E-4
19652.343750; 9.90244E-5
19658.203125; 1.12395E-4
19664.062500; 1.12617E-4
19669.921875; 1.07469E-4
19675.781250; 1.10684E-4
19681.640625; 1.06900E-4
19687.500000; 1.20266E-4
19693.359375; 1.07608E-4
19699.218750; 1.05569E-4
19705.078125; 1.02413E-4
19710.937500; 9.77907E-5
19716.796875; 9.13148E-5
19722.656250; 1.00300E-4
19728.515625; 1.00403E-4
19734.375000; 1.10715E-4
19740.234375; 1.00570E-4
19746.093750; 1.01790E-4
19751.953125; 1.02685E-4
19757.812500; 1.08423E-4
19763.671875; 1.02461E-4
19769.531250; 9.93193E-5
19775.390625; 9.90124E-5
19781.250000; 1.04656E-4
19787.109375; 9.58872E-5
19792.968750; 1.04503E-4
19798.828125; 9.21525E-5
19804.687500; 9.44535E-5
19810.546875; 9.96691E-5
19816.406250; 9.12920E-5
19822.265625; 1.03977E-4
19828.125000; 9.65598E-5
19833.984375; 9.46507E-5
19839.843750; 1.04286E-4
19845.703125; 1.00947E-4
19851.562500; 9.95983E-5
19857.421875; 1.03038E-4
19863.281250; 1.13589E-4
19869.140625; 1.10619E-4
19875.000000; 9.77976E-5
19880.859375; 9.08402E-5
19886.718750; 1.02220E-4
19892.578125; 9.56840E-5
19898.437500; 8.65719E-5
19904.296875; 9.42207E-5
19910.156250; 1.01631E-4
19916.015625; 1.00983E-4
19921.875000; 1.09100E-4
19927.734375; 1.13185E-4
19933.593750; 1.11950E-4
19939.453125; 9.99003E-5
19945.312500; 1.01941E-4
19951.171875; 9.62318E-5
19957.031250; 9.76277E-5
19962.890625; 9.72153E-5
19968.750000; 9.70018E-5
19974.609375; 9.60880E-5
19980.468750; 1.05456E-4
19986.328125; 1.00963E-4
19992.187500; 1.01709E-4
19998.046875; 1.00349E-4
20003.906250; 9.86343E-5
20009.765625; 9.89515E-5
20015.625000; 1.00446E-4
20021.484375; 1.01446E-4
20027.343750; 1.10794E-4
20033.203125; 1.06746E-4
20039.062500; 1.02627E-4
20044.921875; 1.02585E-4
20050.781250; 1.01416E-4
20056.640625; 9.49772E-5
20062.500000; 9.02244E-5
20068.359375; 1.04227E-4
20074.218750; 9.33712E-5
20080.078125; 9.74775E-5
20085.937500; 1.07924E-4
20091.796875; 9.25240E-5
20097.656250; 1.13396E-4
20103.515625; 1.03161E-4
20109.375000; 1.00584E-4
20115.234375; 1.03277E-4
20121.093750; 1.07395E-4
20126.953125; 9.73345E-5
20132.812500; 1.00521E-4
20138.671875; 1.19575E-4
20144.531250; 1.17053E-4
20150.390625; 1.22888E-4
20156.250000; 1.10847E-4
20162.109375; 1.04975E-4
20167.968750; 9.17876E-5
20173.828125; 8.94893E-5
20179.687500; 9.97816E-5
20185.546875; 9.78105E-5
20191.406250; 9.83657E-5
20197.265625; 1.02868E-4
20203.125000; 1.06723E-4
20208.984375; 1.11456E-4
20214.843750; 1.07311E-4
20220.703125; 9.38812E-5
20226.562500; 9.86109E-5
20232.421875; 9.90054E-5
20238.281250; 1.01317E-4
20244.140625; 1.04637E-4
20250.000000; 1.08173E-4
20255.859375; 1.03684E-4
20261.718750; 9.73184E-5
20267.578125; 9.30147E-5
20273.437500; 1.08172E-4
20279.296875; 1.09205E-4
20285.156250; 1.08873E-4
20291.015625; 1.09378E-4
20296.875000; 1.05215E-4
20302.734375; 1.11020E-4
20308.593750; 1.14671E-4
20314.453125; 1.06567E-4
20320.312500; 1.07645E-4
20326.171875; 1.09498E-4
20332.031250; 1.02747E-4
20337.890625; 9.77346E-5
20343.750000; 1.06487E-4
20349.609375; 1.06855E-4
20355.468750; 1.11152E-4
20361.328125; 1.11192E-4
20367.187500; 1.15804E-4
20373.046875; 9.85375E-5
20378.906250; 9.90708E-5
20384.765625; 1.04257E-4
20390.625000; 1.08708E-4
20396.484375; 1.13310E-4
20402.343750; 1.12119E-4
20408.203125; 1.07654E-4
20414.062500; 1.11520E-4
20419.921875; 9.99109E-5
20425.781250; 9.36255E-5
20431.640625; 1.02277E-4
20437.500000; 1.04017E-4
20443.359375; 9.88065E-5
20449.218750; 9.89545E-5
20455.078125; 1.06005E-4
20460.937500; 9.84271E-5
20466.796875; 9.22932E-5
20472.656250; 1.01157E-4
20478.515625; 1.08184E-4
20484.375000; 9.77608E-5
20490.234375; 1.09321E-4
20496.093750; 1.23805E-4
20501.953125; 1.05821E-4
20507.812500; 9.65329E-5
20513.671875; 1.07167E-4
20519.531250; 1.03603E-4
20525.390625; 9.56183E-5
20531.250000; 1.04213E-4
20537.109375; 1.04760E-4
20542.968750; 9.35383E-5
20548.828125; 9.86209E-5
20554.687500; 1.07327E-4
20560.546875; 9.73114E-5
20566.406250; 1.19606E-4
20572.265625; 1.15756E-4
20578.125000; 1.06443E-4
20583.984375; 1.04002E-4
20589.843750; 1.05736E-4
20595.703125; 1.07722E-4
20601.562500; 1.12297E-4
20607.421875; 1.08452E-4
20613.281250; 9.70451E-5
20619.140625; 9.79118E-5
20625.000000; 9.23975E-5
20630.859375; 8.78271E-5
20636.718750; 8.97810E-5
20642.578125; 9.78127E-5
20648.437500; 1.06438E-4
20654.296875; 1.01338E-4
20660.156250; 1.06344E-4
20666.015625; 1.03451E-4
20671.875000; 8.83346E-5
20677.734375; 9.97999E-5
20683.593750; 1.03280E-4
20689.453125; 1.06663E-4
20695.312500; 1.02866E-4
20701.171875; 1.04896E-4
20707.031250; 9.81234E-5
20712.890625; 9.19192E-5
20718.750000; 9.60237E-5
20724.609375; 1.00633E-4
20730.468750; 1.03417E-4
20736.328125; 1.05545E-4
20742.187500; 1.10043E-4
20748.046875; 1.09704E-4
20753.906250; 1.09548E-4
20759.765625; 9.59616E-5
20765.625000; 1.00760E-4
20771.484375; 1.01484E-4
20777.343750; 9.26466E-5
20783.203125; 9.98678E-5
20789.062500; 1.06393E-4
20794.921875; 1.06722E-4
20800.781250; 1.10694E-4
20806.640625; 1.07190E-4
20812.500000; 1.07247E-4
20818.359375; 1.07542E-4
20824.218750; 1.10058E-4
20830.078125; 1.02669E-4
20835.937500; 1.08981E-4
20841.796875; 1.18062E-4
20847.656250; 1.04991E-4
20853.515625; 1.12912E-4
20859.375000; 1.12547E-4
20865.234375; 1.01246E-4
20871.093750; 1.08783E-4
20876.953125; 1.10242E-4
20882.812500; 1.02077E-4
20888.671875; 1.00460E-4
20894.531250; 1.08407E-4
20900.390625; 9.99474E-5
20906.250000; 1.01078E-4
20912.109375; 1.04738E-4
20917.968750; 1.09385E-4
20923.828125; 1.12127E-4
20929.687500; 1.07167E-4
20935.546875; 1.12520E-4
20941.406250; 1.17193E-4
20947.265625; 1.04093E-4
20953.125000; 8.73917E-5
20958.984375; 8.49037E-5
20964.843750; 9.89021E-5
20970.703125; 1.04950E-4
20976.562500; 1.04001E-4
20982.421875; 9.78385E-5
20988.281250; 9.84021E-5
20994.140625; 9.47362E-5
21000.000000; 1.00620E-4
21005.859375; 1.11787E-4
21011.718750; 1.01460E-4
21017.578125; 9.76376E-5
21023.437500; 9.38898E-5
21029.296875; 1.01495E-4
21035.156250; 9.74191E-5
21041.015625; 1.01730E-4
21046.875000; 9.89868E-5
21052.734375; 1.05764E-4
21058.593750; 1.05406E-4
21064.453125; 1.00644E-4
21070.312500; 1.02022E-4
21076.171875; 1.03758E-4
21082.031250; 1.00371E-4
21087.890625; 8.71129E-5
21093.750000; 9.83413E-5
21099.609375; 1.07155E-4
21105.468750; 9.16744E-5
21111.328125; 1.08294E-4
21117.187500; 1.11983E-4
21123.046875; 1.04037E-4
21128.906250; 1.00344E-4
21134.765625; 9.36920E-5
21140.625000; 1.02666E-4
21146.484375; 9.65058E-5
21152.343750; 9.52089E-5
21158.203125; 1.01237E-4
21164.062500; 1.03196E-4
21169.921875; 1.02704E-4
21175.781250; 1.05120E-4
21181.640625; 9.15734E-5
21187.500000; 9.30409E-5
21193.359375; 9.83490E-5
21199.218750; 1.01376E-4
21205.078125; 1.04605E-4
21210.937500; 1.02231E-4
21216.796875; 1.03990E-4
21222.656250; 1.05943E-4
21228.515625; 9.79477E-5
21234.375000; 1.00693E-4
21240.234375; 1.15309E-4
21246.093750; 1.04737E-4
21251.953125; 1.03030E-4
21257.812500; 1.15180E-4
21263.671875; 1.06664E-4
21269.531250; 1.03863E-4
21275.390625; 1.06085E-4
21281.250000; 1.10462E-4
21287.109375; 1.19089E-4
21292.968750; 9.93822E-5
21298.828125; 1.03604E-4
21304.687500; 1.19470E-4
21310.546875; 1.19418E-4
21316.406250; 1.11690E-4
21322.265625; 1.03046E-4
21328.125000; 9.80807E-5
21333.984375; 1.06674E-4
21339.843750; 1.06345E-4
21345.703125; 1.03070E-4
21351.562500; 1.11175E-4
21357.421875; 9.14556E-5
21363.281250; 8.64160E-5
21369.140625; 1.03382E-4
21375.000000; 1.00959E-4
21380.859375; 9.61576E-5
21386.718750; 1.04814E-4
21392.578125; 1.08328E-4
21398.437500; 1.03060E-4
21404.296875; 9.42768E-5
21410.156250; 1.04191E-4
21416.015625; 1.05558E-4
21421.875000; 1.03791E-4
21427.734375; 9.55648E-5
21433.593750; 1.01447E-4
21439.453125; 1.08712E-4
21445.312500; 1.09987E-4
21451.171875; 9.87540E-5
21457.031250; 9.27663E-5
21462.890625; 1.00932E-4
21468.750000; 1.15322E-4
21474.609375; 1.13970E-4
21480.468750; 1.08142E-4
21486.328125; 9.49780E-5
21492.187500; 9.22134E-5
21498.046875; 9.72296E-5
21503.906250; 1.08318E-4
21509.765625; 1.13646E-4
21515.625000; 9.72701E-5
21521.484375; 1.02175E-4
21527.343750; 1.10524E-4
21533.203125; 1.09059E-4
21539.062500; 1.10721E-4
21544.921875; 1.32448E-4
21550.781250; 1.20497E-4
21556.640625; 1.10386E-4
21562.500000; 1.04484E-4
21568.359375; 1.12975E-4
21574.218750; 1.06938E-4
21580.078125; 9.55655E-5
21585.937500; 1.02476E-4
21591.796875; 1.17449E-4
21597.656250; 1.09013E-4
21603.515625; 9.42028E-5
21609.375000; 9.21589E-5
21615.234375; 9.91259E-5
21621.093750; 1.12808E-4
21626.953125; 1.06648E-4
21632.812500; 1.06172E-4
21638.671875; 9.37701E-5
21644.531250; 9.56181E-5
21650.390625; 9.69023E-5
21656.250000; 9.55188E-5
21662.109375; 1.16165E-4
21667.968750; 1.17201E-4
21673.828125; 1.13561E-4
21679.687500; 1.08091E-4
21685.546875; 1.00730E-4
21691.406250; 1.04732E-4
21697.265625; 1.02884E-4
21703.125000; 1.05547E-4
21708.984375; 1.04824E-4
21714.843750; 1.02054E-4
21720.703125; 1.03258E-4
21726.562500; 1.15272E-4
21732.421875; 1.06072E-4
21738.281250; 1.16013E-4
21744.140625; 1.19844E-4
21750.000000; 1.00335E-4
21755.859375; 1.03853E-4
21761.718750; 9.61254E-5
21767.578125; 1.05979E-4
21773.437500; 1.06529E-4
21779.296875; 9.24021E-5
21785.156250; 1.08926E-4
21791.015625; 1.13603E-4
21796.875000; 9.69081E-5
21802.734375; 1.03161E-4
21808.593750; 1.02909E-4
21814.453125; 1.04579E-4
21820.312500; 1.14008E-4
21826.171875; 1.03150E-4
21832.031250; 1.04362E-4
21837.890625; 1.11866E-4
21843.750000; 1.02434E-4
21849.609375; 9.46740E-5
21855.468750; 9.42281E-5
21861.328125; 9.69441E-5
21867.187500; 8.97377E-5
21873.046875; 9.73964E-5
21878.906250; 1.07544E-4
21884.765625; 1.10815E-4
21890.625000; 1.02458E-4
21896.484375; 1.05991E-4
21902.343750; 1.15388E-4
21908.203125; 1.09982E-4
21914.062500; 1.03086E-4
21919.921875; 1.13639E-4
21925.781250; 1.08342E-4
21931.640625; 9.85466E-5
21937.500000; 9.53646E-5
21943.359375; 1.05998E-4
21949.218750; 1.01693E-4
21955.078125; 1.02871E-4
21960.937500; 1.06052E-4
21966.796875; 1.01566E-4
21972.656250; 9.90682E-5
21978.515625; 9.35468E-5
21984.375000; 1.06555E-4
21990.234375; 1.12043E-4
21996.093750; 1.07780E-4
22001.953125; 1.01751E-4
22007.812500; 1.11958E-4
22013.671875; 1.17045E-4
22019.531250; 1.13401E-4
22025.390625; 1.12334E-4
22031.250000; 1.01019E-4
22037.109375; 9.17304E-5
22042.968750; 1.07212E-4
22048.828125; 1.12783E-4
22054.687500; 1.04103E-4
22060.546875; 9.37780E-5
22066.406250; 9.10891E-5
22072.265625; 9.58280E-5
22078.125000; 9.79394E-5
22083.984375; 9.82513E-5
22089.843750; 1.06641E-4
22095.703125; 9.93456E-5
22101.562500; 9.92107E-5
22107.421875; 1.10015E-4
22113.281250; 9.94600E-5
22119.140625; 1.00179E-4
22125.000000; 1.05785E-4
22130.859375; 1.01180E-4
22136.718750; 1.01075E-4
22142.578125; 9.62218E-5
22148.437500; 1.05786E-4
22154.296875; 1.09614E-4
22160.156250; 1.02533E-4
22166.015625; 1.01289E-4
22171.875000; 1.10248E-4
22177.734375; 9.63728E-5
22183.593750; 9.70702E-5
22189.453125; 9.18556E-5
22195.312500; 1.00583E-4
22201.171875; 1.05118E-4
22207.031250; 1.03567E-4
22212.890625; 1.02429E-4
22218.750000; 1.06394E-4
22224.609375; 9.05142E-5
22230.468750; 8.84251E-5
22236.328125; 9.55067E-5
22242.187500; 9.87275E-5
22248.046875; 9.60930E-5
22253.906250; 9.70050E-5
22259.765625; 1.02268E-4
22265.625000; 1.04586E-4
22271.484375; 1.02731E-4
22277.343750; 1.02441E-4
22283.203125; 9.73956E-5
22289.062500; 1.00167E-4
22294.921875; 1.03483E-4
22300.781250; 9.15653E-5
22306.640625; 9.02523E-5
22312.500000; 9.73463E-5
22318.359375; 9.31337E-5
22324.218750; 9.76500E-5
22330.078125; 9.68914E-5
22335.937500; 1.02020E-4
22341.796875; 1.03304E-4
22347.656250; 1.00566E-4
22353.515625; 9.65510E-5
22359.375000; 9.80310E-5
22365.234375; 1.00163E-4
22371.093750; 1.04382E-4
22376.953125; 1.09838E-4
22382.812500; 1.07061E-4
22388.671875; 9.56702E-5
22394.531250; 9.24045E-5
22400.390625; 9.18059E-5
22406.250000; 8.09074E-5
22412.109375; 8.70284E-5
22417.968750; 1.01301E-4
22423.828125; 9.91888E-5
22429.687500; 9.64938E-5
22435.546875; 8.38910E-5
22441.406250; 8.02762E-5
22447.265625; 9.03618E-5
22453.125000; 9.21317E-5
22458.984375; 8.90288E-5
22464.843750; 9.44585E-5
22470.703125; 1.03105E-4
22476.562500; 1.05209E-4
22482.421875; 1.03034E-4
22488.281250; 1.02013E-4
22494.140625; 9.72883E-5
22500.000000; 1.00449E-4
22505.859375; 9.68635E-5
22511.718750; 8.91891E-5
22517.578125; 9.28320E-5
22523.437500; 1.06968E-4
22529.296875; 9.91731E-5
22535.156250; 9.99643E-5
22541.015625; 1.00042E-4
22546.875000; 8.68464E-5
22552.734375; 9.46128E-5
22558.593750; 9.51646E-5
22564.453125; 9.68542E-5
22570.312500; 9.16409E-5
22576.171875; 9.02950E-5
22582.031250; 9.38403E-5
22587.890625; 1.02994E-4
22593.750000; 1.01210E-4
22599.609375; 9.48644E-5
22605.468750; 1.00432E-4
22611.328125; 9.63931E-5
22617.187500; 8.35564E-5
22623.046875; 7.97607E-5
22628.906250; 8.75522E-5
22634.765625; 1.03472E-4
22640.625000; 1.01352E-4
22646.484375; 9.14320E-5
22652.343750; 9.04810E-5
22658.203125; 8.71253E-5
22664.062500; 8.97634E-5
22669.921875; 9.19364E-5
22675.781250; 8.43714E-5
22681.640625; 9.34280E-5
22687.500000; 8.95152E-5
22693.359375; 8.15561E-5
22699.218750; 8.58934E-5
22705.078125; 9.84796E-5
22710.937500; 9.65330E-5
22716.796875; 8.83560E-5
22722.656250; 8.96141E-5
22728.515625; 9.87175E-5
22734.375000; 1.05551E-4
22740.234375; 9.29608E-5
22746.093750; 8.62713E-5
22751.953125; 8.83464E-5
22757.812500; 7.53616E-5
22763.671875; 8.12757E-5
22769.531250; 8.76202E-5
22775.390625; 8.21624E-5
22781.250000; 8.88025E-5
22787.109375; 8.85311E-5
22792.968750; 8.34793E-5
22798.828125; 7.00825E-5
22804.687500; 7.42855E-5
22810.546875; 8.67373E-5
22816.406250; 8.60708E-5
22822.265625; 8.76982E-5
22828.125000; 9.28535E-5
22833.984375; 8.19533E-5
22839.843750; 8.36667E-5
22845.703125; 9.04243E-5
22851.562500; 8.26138E-5
22857.421875; 7.64880E-5
22863.281250; 7.88530E-5
22869.140625; 8.05558E-5
22875.000000; 8.06984E-5
22880.859375; 8.46240E-5
22886.718750; 7.45715E-5
22892.578125; 7.84116E-5
22898.437500; 9.23034E-5
22904.296875; 9.74154E-5
22910.156250; 8.76574E-5
22916.015625; 8.42242E-5
22921.875000; 8.78864E-5
22927.734375; 8.39017E-5
22933.593750; 7.12835E-5
22939.453125; 7.13972E-5
22945.312500; 8.28099E-5
22951.171875; 7.76908E-5
22957.031250; 7.90042E-5
22962.890625; 9.15654E-5
22968.750000; 7.90468E-5
22974.609375; 7.21445E-5
22980.468750; 7.04991E-5
22986.328125; 8.05973E-5
22992.187500; 7.14653E-5
22998.046875; 6.45977E-5
23003.906250; 6.62333E-5
23009.765625; 7.99213E-5
23015.625000; 7.53816E-5
23021.484375; 6.95712E-5
23027.343750; 7.09999E-5
23033.203125; 7.72247E-5
23039.062500; 8.00214E-5
23044.921875; 7.61094E-5
23050.781250; 6.90925E-5
23056.640625; 7.25731E-5
23062.500000; 7.37643E-5
23068.359375; 7.02678E-5
23074.218750; 7.98496E-5
23080.078125; 8.62844E-5
23085.937500; 7.96733E-5
23091.796875; 6.70336E-5
23097.656250; 7.71889E-5
23103.515625; 7.33912E-5
23109.375000; 7.16106E-5
23115.234375; 6.80606E-5
23121.093750; 7.58940E-5
23126.953125; 7.28921E-5
23132.812500; 7.35366E-5
23138.671875; 7.50965E-5
23144.531250; 5.71592E-5
23150.390625; 6.86535E-5
23156.250000; 6.81713E-5
23162.109375; 6.60572E-5
23167.968750; 6.78858E-5
23173.828125; 6.45909E-5
23179.687500; 6.45015E-5
23185.546875; 6.82474E-5
23191.406250; 6.44516E-5
23197.265625; 7.26897E-5
23203.125000; 7.16405E-5
23208.984375; 6.38713E-5
23214.843750; 6.16752E-5
23220.703125; 6.56367E-5
23226.562500; 6.48752E-5
23232.421875; 6.00218E-5
23238.281250; 6.81919E-5
23244.140625; 7.50224E-5
23250.000000; 7.12016E-5
23255.859375; 6.25016E-5
23261.718750; 6.24343E-5
23267.578125; 6.10670E-5
23273.437500; 5.64617E-5
23279.296875; 5.78377E-5
23285.156250; 5.77910E-5
23291.015625; 5.79915E-5
23296.875000; 6.54005E-5
23302.734375; 6.45229E-5
23308.593750; 7.38256E-5
23314.453125; 6.58028E-5
23320.312500; 6.36969E-5
23326.171875; 5.76231E-5
23332.031250; 4.99750E-5
23337.890625; 5.45814E-5
23343.750000; 5.93849E-5
23349.609375; 5.59650E-5
23355.468750; 5.36731E-5
23361.328125; 5.67884E-5
23367.187500; 5.51707E-5
23373.046875; 5.19090E-5
23378.906250; 5.29596E-5
23384.765625; 5.82587E-5
23390.625000; 5.79520E-5
23396.484375; 5.76650E-5
23402.343750; 5.56689E-5
23408.203125; 5.25128E-5
23414.062500; 5.48146E-5
23419.921875; 5.77648E-5
23425.781250; 5.35332E-5
23431.640625; 5.40461E-5
23437.500000; 5.03268E-5
23443.359375; 5.56180E-5
23449.218750; 5.74020E-5
23455.078125; 5.27615E-5
23460.937500; 5.01073E-5
23466.796875; 4.90411E-5
23472.656250; 5.40107E-5
23478.515625; 5.53418E-5
23484.375000; 5.39124E-5
23490.234375; 5.49282E-5
23496.093750; 5.11058E-5
23501.953125; 4.95262E-5
23507.812500; 5.25158E-5
23513.671875; 5.29724E-5
23519.531250; 5.31827E-5
23525.390625; 5.10564E-5
23531.250000; 4.82898E-5
23537.109375; 4.45444E-5
23542.968750; 4.74740E-5
23548.828125; 5.04887E-5
23554.687500; 4.22612E-5
23560.546875; 4.44621E-5
23566.406250; 4.26630E-5
23572.265625; 4.60298E-5
23578.125000; 4.79077E-5
23583.984375; 4.45104E-5
23589.843750; 4.76197E-5
23595.703125; 4.73046E-5
23601.562500; 4.21302E-5
23607.421875; 4.15540E-5
23613.281250; 4.12838E-5
23619.140625; 4.36494E-5
23625.000000; 4.53683E-5
23630.859375; 4.24666E-5
23636.718750; 3.73553E-5
23642.578125; 3.95887E-5
23648.437500; 4.48416E-5
23654.296875; 4.33576E-5
23660.156250; 4.22446E-5
23666.015625; 4.20133E-5
23671.875000; 4.28037E-5
23677.734375; 4.27355E-5
23683.593750; 4.56234E-5
23689.453125; 4.06717E-5
23695.312500; 3.99280E-5
23701.171875; 4.25305E-5
23707.031250; 4.14267E-5
23712.890625; 4.18342E-5
23718.750000; 4.22038E-5
23724.609375; 3.81976E-5
23730.468750; 4.26833E-5
23736.328125; 4.19967E-5
23742.187500; 4.37522E-5
23748.046875; 4.41088E-5
23753.906250; 4.14676E-5
23759.765625; 3.44795E-5
23765.625000; 3.80938E-5
23771.484375; 3.87631E-5
23777.343750; 4.06706E-5
23783.203125; 3.90469E-5
23789.062500; 3.51969E-5
23794.921875; 3.90591E-5
23800.781250; 3.77445E-5
23806.640625; 3.75397E-5
23812.500000; 3.41149E-5
23818.359375; 3.65800E-5
23824.218750; 3.39238E-5
23830.078125; 3.76308E-5
23835.937500; 3.79483E-5
23841.796875; 3.45267E-5
23847.656250; 3.67843E-5
23853.515625; 3.66911E-5
23859.375000; 3.75993E-5
23865.234375; 3.87577E-5
23871.093750; 3.63088E-5
23876.953125; 3.79822E-5
23882.812500; 4.00584E-5
23888.671875; 3.98416E-5
23894.531250; 3.98933E-5
23900.390625; 3.85860E-5
23906.250000; 3.89469E-5
23912.109375; 3.39714E-5
23917.968750; 3.53308E-5
23923.828125; 3.83730E-5
23929.687500; 3.77558E-5
23935.546875; 3.72312E-5
23941.406250; 4.04893E-5
23947.265625; 3.78173E-5
23953.125000; 3.89163E-5
23958.984375; 4.28115E-5
23964.843750; 3.58598E-5
23970.703125; 3.20204E-5
23976.562500; 3.33211E-5
23982.421875; 3.80742E-5
23988.281250; 3.30460E-5
23994.140625; 3.22246E-5
