* Measurement data measured by REW V5.31.3
* Source: PCM: default, no input selected, 2, volume: no control
* Format: 8192-point spectrum using Hann window and exponential averaging 0.97 
* Dated: Mar 9, 2025 12:51:13 PM
* REW Settings:
*  C-weighting compensation: Off
*  Target level: 75.0 dB
* Note: OSDEHA ANODE-OUTPUT; 8192-point spectrum using Hann window and exponential averaging 0.97  Input RMS 17.77 V 17.77 VC, 17.77 VA 17.77 V 22 - 22k UNW 876.6 uV >22k Distortion at 1,000.0 Hz, -15.01 dBFS: Gain: 29.34 dB THD: 0.014 % based on 21 harmonics  [0..22800 Hz] HHD: 0.0020 %  [10 .. 22] N: 0.071 %  [0..22800 Hz] N+D: 5.027 mV A THD+N: 0.072 %  [0..22800 Hz] SNR: 63.0 dB ENOB: 13.1 bits 2nd harmonic 0.014 % -149 deg 3rd harmonic 0.0010 % 75 deg 4th harmonic 0.00057 % 176 deg 5th harmonic 0.00063 % -52 deg 6th harmonic 0.00058 % 162 deg 7th harmonic 0.00058 % -103 deg 8th harmonic 0.00060 % 89 deg 9th harmonic 0.00061 % -58 deg 
* Measurement: OSDEHA A-OUT 17.8V
* Smoothing: None
* Frequency Step: 5.859375 Hz
* Start Frequency: 5.859375 Hz
*
* Freq(Hz); V(V)
5.859375; 8.95764E-4
11.718750; 4.56437E-4
17.578125; 2.32219E-4
23.437500; 1.87161E-4
29.296875; 1.72890E-4
35.156250; 1.58023E-4
41.015625; 1.57498E-4
46.875000; 3.73543E-4
52.734375; 3.83801E-4
58.593750; 1.54005E-4
64.453125; 1.49520E-4
70.312500; 1.45205E-4
76.171875; 1.34468E-4
82.031250; 1.33006E-4
87.890625; 1.93796E-4
93.750000; 4.99104E-3
99.609375; 1.12365E-2
105.468750; 6.29423E-3
111.328125; 2.15852E-4
117.187500; 1.41020E-4
123.046875; 1.26293E-4
128.906250; 1.06952E-4
134.765625; 1.15690E-4
140.625000; 1.15917E-4
146.484375; 1.50787E-4
152.343750; 1.47362E-4
158.203125; 1.16087E-4
164.062500; 1.15238E-4
169.921875; 1.07936E-4
175.781250; 1.04911E-4
181.640625; 1.13707E-4
187.500000; 1.31607E-4
193.359375; 6.27068E-4
199.218750; 1.59271E-3
205.078125; 9.98915E-4
210.937500; 1.13319E-4
216.796875; 1.19379E-4
222.656250; 1.18719E-4
228.515625; 1.25233E-4
234.375000; 1.28920E-4
240.234375; 1.08791E-4
246.093750; 1.32031E-4
251.953125; 1.52278E-4
257.812500; 1.22792E-4
263.671875; 1.16102E-4
269.531250; 1.22658E-4
275.390625; 1.18923E-4
281.250000; 1.13713E-4
287.109375; 1.10306E-4
292.968750; 1.38932E-4
298.828125; 2.79642E-4
304.687500; 2.11570E-4
310.546875; 1.05092E-4
316.406250; 1.04062E-4
322.265625; 1.08340E-4
328.125000; 1.10650E-4
333.984375; 1.17737E-4
339.843750; 1.20132E-4
345.703125; 1.49547E-4
351.562500; 1.77511E-4
357.421875; 1.17123E-4
363.281250; 1.15037E-4
369.140625; 1.12177E-4
375.000000; 1.01937E-4
380.859375; 1.06949E-4
386.718750; 1.24925E-4
392.578125; 1.73475E-4
398.437500; 4.79126E-4
404.296875; 3.90260E-4
410.156250; 1.31504E-4
416.015625; 1.08497E-4
421.875000; 1.12167E-4
427.734375; 1.16889E-4
433.593750; 1.06064E-4
439.453125; 1.11958E-4
445.312500; 1.25612E-4
451.171875; 1.45933E-4
457.031250; 1.20883E-4
462.890625; 1.25309E-4
468.750000; 1.09755E-4
474.609375; 1.19251E-4
480.468750; 1.20241E-4
486.328125; 1.20594E-4
492.187500; 1.40084E-4
498.046875; 3.22702E-4
503.906250; 2.89423E-4
509.765625; 1.19241E-4
515.625000; 1.02698E-4
521.484375; 1.07573E-4
527.343750; 1.17412E-4
533.203125; 1.11365E-4
539.062500; 1.07614E-4
544.921875; 1.07701E-4
550.781250; 1.03372E-4
556.640625; 1.05325E-4
562.500000; 1.05860E-4
568.359375; 1.02572E-4
574.218750; 1.07572E-4
580.078125; 1.12850E-4
585.937500; 1.04515E-4
591.796875; 1.01086E-4
597.656250; 1.06710E-4
603.515625; 1.22525E-4
609.375000; 1.07717E-4
615.234375; 1.05661E-4
621.093750; 1.10816E-4
626.953125; 1.04536E-4
632.812500; 1.12431E-4
638.671875; 1.04876E-4
644.531250; 1.09739E-4
650.390625; 1.18051E-4
656.250000; 1.10187E-4
662.109375; 1.03781E-4
667.968750; 1.03814E-4
673.828125; 1.05991E-4
679.687500; 1.24571E-4
685.546875; 1.07123E-4
691.406250; 1.31056E-4
697.265625; 2.15763E-4
703.125000; 2.19271E-4
708.984375; 1.22448E-4
714.843750; 1.25768E-4
720.703125; 1.03833E-4
726.562500; 1.25814E-4
732.421875; 1.25700E-4
738.281250; 1.23560E-4
744.140625; 1.33254E-4
750.000000; 1.67041E-4
755.859375; 1.35401E-4
761.718750; 1.39360E-4
767.578125; 1.32448E-4
773.437500; 1.42805E-4
779.296875; 1.43520E-4
785.156250; 1.44375E-4
791.015625; 1.46083E-4
796.875000; 1.77048E-4
802.734375; 2.02395E-4
808.593750; 1.91488E-4
814.453125; 1.92418E-4
820.312500; 2.18188E-4
826.171875; 2.05429E-4
832.031250; 2.33934E-4
837.890625; 2.47283E-4
843.750000; 2.87857E-4
849.609375; 3.13109E-4
855.468750; 3.64663E-4
861.328125; 3.83705E-4
867.187500; 4.32356E-4
873.046875; 4.91120E-4
878.906250; 5.67635E-4
884.765625; 6.49779E-4
890.625000; 7.70802E-4
896.484375; 8.98596E-4
902.343750; 1.06832E-3
908.203125; 1.28194E-3
914.062500; 1.56364E-3
919.921875; 1.93555E-3
925.781250; 2.43558E-3
931.640625; 3.10934E-3
937.500000; 4.06258E-3
943.359375; 5.49494E-3
949.218750; 7.62694E-3
955.078125; 1.10575E-2
960.937500; 1.69070E-2
966.796875; 2.78003E-2
972.656250; 5.05283E-2
978.515625; 1.07363E-1
984.375000; 3.00636E-1
990.234375; 1.65346E0
996.093750; 1.32277E1
1001.953125; 1.65347E1
1007.812500; 4.72418E0
1013.671875; 4.72424E-1
1019.531250; 1.45366E-1
1025.390625; 6.35894E-2
1031.250000; 3.34707E-2
1037.109375; 1.97842E-2
1042.968750; 1.26567E-2
1048.828125; 8.58067E-3
1054.687500; 6.11353E-3
1060.546875; 4.46916E-3
1066.406250; 3.40447E-3
1072.265625; 2.62310E-3
1078.125000; 2.07748E-3
1083.984375; 1.68585E-3
1089.843750; 1.36106E-3
1095.703125; 1.14650E-3
1101.562500; 9.39359E-4
1107.421875; 8.15208E-4
1113.281250; 6.76793E-4
1119.140625; 6.08646E-4
1125.000000; 5.05010E-4
1130.859375; 4.58407E-4
1136.718750; 4.01575E-4
1142.578125; 3.61192E-4
1148.437500; 3.24537E-4
1154.296875; 2.77800E-4
1160.156250; 2.70634E-4
1166.015625; 2.34529E-4
1171.875000; 2.34800E-4
1177.734375; 2.03810E-4
1183.593750; 1.82835E-4
1189.453125; 1.78495E-4
1195.312500; 1.70531E-4
1201.171875; 1.72841E-4
1207.031250; 1.66427E-4
1212.890625; 1.52336E-4
1218.750000; 1.45611E-4
1224.609375; 1.39401E-4
1230.468750; 1.29282E-4
1236.328125; 1.25005E-4
1242.187500; 1.21080E-4
1248.046875; 1.34569E-4
1253.906250; 1.21515E-4
1259.765625; 1.17604E-4
1265.625000; 1.22755E-4
1271.484375; 1.20162E-4
1277.343750; 1.15694E-4
1283.203125; 1.13213E-4
1289.062500; 1.10696E-4
1294.921875; 1.23576E-4
1300.781250; 1.19809E-4
1306.640625; 1.05314E-4
1312.500000; 1.16573E-4
1318.359375; 1.02324E-4
1324.218750; 1.11567E-4
1330.078125; 1.10077E-4
1335.937500; 1.10052E-4
1341.796875; 1.04782E-4
1347.656250; 1.24428E-4
1353.515625; 1.23358E-4
1359.375000; 1.20766E-4
1365.234375; 1.16556E-4
1371.093750; 1.18093E-4
1376.953125; 9.76355E-5
1382.812500; 9.25971E-5
1388.671875; 9.75450E-5
1394.531250; 1.18805E-4
1400.390625; 1.22889E-4
1406.250000; 1.14642E-4
1412.109375; 1.13302E-4
1417.968750; 1.14943E-4
1423.828125; 1.03615E-4
1429.687500; 1.02195E-4
1435.546875; 1.07199E-4
1441.406250; 1.07383E-4
1447.265625; 1.01527E-4
1453.125000; 1.04003E-4
1458.984375; 1.02958E-4
1464.843750; 1.04771E-4
1470.703125; 9.46454E-5
1476.562500; 9.43444E-5
1482.421875; 9.30726E-5
1488.281250; 1.02323E-4
1494.140625; 1.04427E-4
1500.000000; 1.24482E-4
1505.859375; 1.18073E-4
1511.718750; 1.07812E-4
1517.578125; 1.07192E-4
1523.437500; 1.13704E-4
1529.296875; 1.15656E-4
1535.156250; 1.07820E-4
1541.015625; 1.08099E-4
1546.875000; 9.99281E-5
1552.734375; 1.00854E-4
1558.593750; 1.02744E-4
1564.453125; 1.02363E-4
1570.312500; 1.07577E-4
1576.171875; 1.09240E-4
1582.031250; 1.01166E-4
1587.890625; 1.07700E-4
1593.750000; 1.01467E-4
1599.609375; 1.01816E-4
1605.468750; 1.08527E-4
1611.328125; 1.15393E-4
1617.187500; 1.02105E-4
1623.046875; 1.06446E-4
1628.906250; 1.14553E-4
1634.765625; 1.12976E-4
1640.625000; 1.16929E-4
1646.484375; 1.12823E-4
1652.343750; 1.01095E-4
1658.203125; 9.53613E-5
1664.062500; 1.01693E-4
1669.921875; 1.09484E-4
1675.781250; 1.19205E-4
1681.640625; 1.06496E-4
1687.500000; 1.13806E-4
1693.359375; 1.11854E-4
1699.218750; 1.02098E-4
1705.078125; 1.02853E-4
1710.937500; 1.20679E-4
1716.796875; 1.12894E-4
1722.656250; 1.14997E-4
1728.515625; 1.14870E-4
1734.375000; 1.12409E-4
1740.234375; 1.16556E-4
1746.093750; 1.05652E-4
1751.953125; 1.09174E-4
1757.812500; 1.03868E-4
1763.671875; 1.10465E-4
1769.531250; 1.12062E-4
1775.390625; 9.77736E-5
1781.250000; 9.90525E-5
1787.109375; 1.07369E-4
1792.968750; 1.07365E-4
1798.828125; 1.12498E-4
1804.687500; 1.08301E-4
1810.546875; 1.01812E-4
1816.406250; 1.04739E-4
1822.265625; 9.88088E-5
1828.125000; 9.44660E-5
1833.984375; 9.55876E-5
1839.843750; 1.05282E-4
1845.703125; 1.02805E-4
1851.562500; 9.24942E-5
1857.421875; 1.09602E-4
1863.281250; 1.04761E-4
1869.140625; 1.02408E-4
1875.000000; 1.01675E-4
1880.859375; 1.07624E-4
1886.718750; 1.04798E-4
1892.578125; 1.04834E-4
1898.437500; 1.03193E-4
1904.296875; 1.01921E-4
1910.156250; 9.92965E-5
1916.015625; 9.71038E-5
1921.875000; 1.09029E-4
1927.734375; 1.14648E-4
1933.593750; 1.21839E-4
1939.453125; 1.14431E-4
1945.312500; 1.17454E-4
1951.171875; 1.10353E-4
1957.031250; 9.69992E-5
1962.890625; 1.06528E-4
1968.750000; 1.05930E-4
1974.609375; 1.17957E-4
1980.468750; 1.14505E-4
1986.328125; 1.25433E-4
1992.187500; 6.53269E-4
1998.046875; 2.28616E-3
2003.906250; 1.82709E-3
2009.765625; 2.46534E-4
2015.625000; 1.12909E-4
2021.484375; 1.00526E-4
2027.343750; 9.56448E-5
2033.203125; 9.31612E-5
2039.062500; 1.02060E-4
2044.921875; 1.08104E-4
2050.781250; 1.07946E-4
2056.640625; 1.05497E-4
2062.500000; 9.51824E-5
2068.359375; 1.00356E-4
2074.218750; 1.00127E-4
2080.078125; 9.68208E-5
2085.937500; 1.03520E-4
2091.796875; 1.05484E-4
2097.656250; 1.15767E-4
2103.515625; 1.08035E-4
2109.375000; 9.76824E-5
2115.234375; 9.51139E-5
2121.093750; 9.49058E-5
2126.953125; 9.76079E-5
2132.812500; 9.96902E-5
2138.671875; 9.90708E-5
2144.531250; 1.00813E-4
2150.390625; 1.07352E-4
2156.250000; 9.68625E-5
2162.109375; 8.86120E-5
2167.968750; 9.21210E-5
2173.828125; 9.93479E-5
2179.687500; 1.06059E-4
2185.546875; 1.12817E-4
2191.406250; 1.04387E-4
2197.265625; 1.00197E-4
2203.125000; 1.03521E-4
2208.984375; 1.08065E-4
2214.843750; 1.03187E-4
2220.703125; 1.11300E-4
2226.562500; 1.00994E-4
2232.421875; 1.01293E-4
2238.281250; 1.09000E-4
2244.140625; 1.06404E-4
2250.000000; 1.13126E-4
2255.859375; 1.06938E-4
2261.718750; 1.07722E-4
2267.578125; 1.05977E-4
2273.437500; 1.00824E-4
2279.296875; 1.07612E-4
2285.156250; 1.04847E-4
2291.015625; 9.61316E-5
2296.875000; 1.02780E-4
2302.734375; 1.16002E-4
2308.593750; 1.07011E-4
2314.453125; 1.08746E-4
2320.312500; 1.08155E-4
2326.171875; 1.02315E-4
2332.031250; 1.01610E-4
2337.890625; 9.63748E-5
2343.750000; 9.97255E-5
2349.609375; 1.04135E-4
2355.468750; 1.00221E-4
2361.328125; 1.07765E-4
2367.187500; 1.07766E-4
2373.046875; 1.06907E-4
2378.906250; 1.00192E-4
2384.765625; 1.05579E-4
2390.625000; 1.01786E-4
2396.484375; 1.09596E-4
2402.343750; 1.29121E-4
2408.203125; 1.05880E-4
2414.062500; 1.06904E-4
2419.921875; 1.00230E-4
2425.781250; 1.05192E-4
2431.640625; 1.03989E-4
2437.500000; 9.81138E-5
2443.359375; 1.00435E-4
2449.218750; 1.08398E-4
2455.078125; 1.22129E-4
2460.937500; 1.15411E-4
2466.796875; 1.09169E-4
2472.656250; 1.15735E-4
2478.515625; 1.12019E-4
2484.375000; 9.96917E-5
2490.234375; 9.74171E-5
2496.093750; 9.97281E-5
2501.953125; 1.06119E-4
2507.812500; 1.04529E-4
2513.671875; 1.02260E-4
2519.531250; 1.01417E-4
2525.390625; 1.03729E-4
2531.250000; 9.65090E-5
2537.109375; 1.05977E-4
2542.968750; 1.05464E-4
2548.828125; 1.04848E-4
2554.687500; 1.02944E-4
2560.546875; 1.11307E-4
2566.406250; 1.17481E-4
2572.265625; 1.03601E-4
2578.125000; 1.02240E-4
2583.984375; 1.12646E-4
2589.843750; 1.11637E-4
2595.703125; 1.03038E-4
2601.562500; 9.95745E-5
2607.421875; 1.09291E-4
2613.281250; 1.05743E-4
2619.140625; 1.02915E-4
2625.000000; 1.05003E-4
2630.859375; 1.03921E-4
2636.718750; 1.12953E-4
2642.578125; 1.14108E-4
2648.437500; 9.64564E-5
2654.296875; 1.06942E-4
2660.156250; 1.04704E-4
2666.015625; 1.07290E-4
2671.875000; 1.09418E-4
2677.734375; 1.11578E-4
2683.593750; 1.10762E-4
2689.453125; 1.14392E-4
2695.312500; 9.51301E-5
2701.171875; 1.01414E-4
2707.031250; 1.08203E-4
2712.890625; 1.08460E-4
2718.750000; 1.10759E-4
2724.609375; 1.02327E-4
2730.468750; 1.06511E-4
2736.328125; 1.13933E-4
2742.187500; 1.03662E-4
2748.046875; 1.08590E-4
2753.906250; 1.05267E-4
2759.765625; 9.99319E-5
2765.625000; 1.10352E-4
2771.484375; 9.66380E-5
2777.343750; 9.49943E-5
2783.203125; 1.09843E-4
2789.062500; 1.20094E-4
2794.921875; 1.08717E-4
2800.781250; 1.07540E-4
2806.640625; 1.02873E-4
2812.500000; 1.10868E-4
2818.359375; 1.08855E-4
2824.218750; 1.06870E-4
2830.078125; 1.09706E-4
2835.937500; 9.96881E-5
2841.796875; 1.00052E-4
2847.656250; 1.09135E-4
2853.515625; 1.12365E-4
2859.375000; 9.64723E-5
2865.234375; 9.16704E-5
2871.093750; 1.03803E-4
2876.953125; 1.22434E-4
2882.812500; 1.14025E-4
2888.671875; 1.00942E-4
2894.531250; 9.46071E-5
2900.390625; 9.58723E-5
2906.250000; 9.92520E-5
2912.109375; 9.89663E-5
2917.968750; 1.02052E-4
2923.828125; 1.06655E-4
2929.687500; 1.11723E-4
2935.546875; 1.02459E-4
2941.406250; 1.06707E-4
2947.265625; 1.13613E-4
2953.125000; 1.01332E-4
2958.984375; 1.04713E-4
2964.843750; 1.08764E-4
2970.703125; 1.03530E-4
2976.562500; 1.02396E-4
2982.421875; 1.10244E-4
2988.281250; 1.21413E-4
2994.140625; 1.57401E-4
3000.000000; 2.37221E-4
3005.859375; 1.52698E-4
3011.718750; 1.09015E-4
3017.578125; 1.09435E-4
3023.437500; 1.09187E-4
3029.296875; 1.02979E-4
3035.156250; 1.03883E-4
3041.015625; 1.02759E-4
3046.875000; 1.03119E-4
3052.734375; 1.07099E-4
3058.593750; 1.07339E-4
3064.453125; 1.13295E-4
3070.312500; 1.07052E-4
3076.171875; 9.81388E-5
3082.031250; 1.05933E-4
3087.890625; 1.04721E-4
3093.750000; 1.03782E-4
3099.609375; 1.08567E-4
3105.468750; 1.08855E-4
3111.328125; 1.11986E-4
3117.187500; 1.12166E-4
3123.046875; 1.04544E-4
3128.906250; 9.90690E-5
3134.765625; 1.01382E-4
3140.625000; 1.10906E-4
3146.484375; 1.06965E-4
3152.343750; 1.00199E-4
3158.203125; 1.02583E-4
3164.062500; 1.09560E-4
3169.921875; 1.06999E-4
3175.781250; 1.01803E-4
3181.640625; 1.15393E-4
3187.500000; 1.10533E-4
3193.359375; 1.00179E-4
3199.218750; 1.00131E-4
3205.078125; 1.03173E-4
3210.937500; 1.06312E-4
3216.796875; 1.02222E-4
3222.656250; 9.70303E-5
3228.515625; 9.41684E-5
3234.375000; 9.41884E-5
3240.234375; 1.07216E-4
3246.093750; 1.01050E-4
3251.953125; 1.04958E-4
3257.812500; 1.10473E-4
3263.671875; 1.18127E-4
3269.531250; 1.14124E-4
3275.390625; 1.04977E-4
3281.250000; 1.03921E-4
3287.109375; 1.04677E-4
3292.968750; 1.13746E-4
3298.828125; 1.01395E-4
3304.687500; 9.88091E-5
3310.546875; 1.06932E-4
3316.406250; 1.02777E-4
3322.265625; 1.01498E-4
3328.125000; 1.00430E-4
3333.984375; 1.08395E-4
3339.843750; 1.10920E-4
3345.703125; 1.05098E-4
3351.562500; 1.20413E-4
3357.421875; 1.16728E-4
3363.281250; 1.04187E-4
3369.140625; 1.05192E-4
3375.000000; 9.48833E-5
3380.859375; 9.94833E-5
3386.718750; 1.07057E-4
3392.578125; 1.01621E-4
3398.437500; 1.08812E-4
3404.296875; 1.02113E-4
3410.156250; 1.12227E-4
3416.015625; 1.17279E-4
3421.875000; 1.07324E-4
3427.734375; 9.45370E-5
3433.593750; 9.89042E-5
3439.453125; 1.02014E-4
3445.312500; 1.20690E-4
3451.171875; 1.28759E-4
3457.031250; 1.16874E-4
3462.890625; 1.02221E-4
3468.750000; 1.01479E-4
3474.609375; 1.08028E-4
3480.468750; 1.21317E-4
3486.328125; 1.13173E-4
3492.187500; 1.00073E-4
3498.046875; 1.15598E-4
3503.906250; 1.22753E-4
3509.765625; 1.04247E-4
3515.625000; 1.34585E-4
3521.484375; 1.77167E-4
3527.343750; 1.68773E-4
3533.203125; 1.18373E-4
3539.062500; 1.02688E-4
3544.921875; 9.91447E-5
3550.781250; 1.01161E-4
3556.640625; 9.32955E-5
3562.500000; 9.77880E-5
3568.359375; 1.11046E-4
3574.218750; 1.04565E-4
3580.078125; 9.06574E-5
3585.937500; 9.87759E-5
3591.796875; 9.61010E-5
3597.656250; 1.03218E-4
3603.515625; 1.08626E-4
3609.375000; 1.03843E-4
3615.234375; 9.33085E-5
3621.093750; 1.06524E-4
3626.953125; 1.07016E-4
3632.812500; 1.03089E-4
3638.671875; 9.53805E-5
3644.531250; 8.86096E-5
3650.390625; 1.05625E-4
3656.250000; 1.09382E-4
3662.109375; 1.05382E-4
3667.968750; 1.09120E-4
3673.828125; 1.15745E-4
3679.687500; 1.20329E-4
3685.546875; 1.08163E-4
3691.406250; 1.11295E-4
3697.265625; 9.69227E-5
3703.125000; 9.22916E-5
3708.984375; 1.13893E-4
3714.843750; 1.08411E-4
3720.703125; 9.95118E-5
3726.562500; 1.02594E-4
3732.421875; 1.01228E-4
3738.281250; 1.01505E-4
3744.140625; 9.32160E-5
3750.000000; 1.02641E-4
3755.859375; 9.81419E-5
3761.718750; 1.10202E-4
3767.578125; 1.02280E-4
3773.437500; 1.07640E-4
3779.296875; 1.14467E-4
3785.156250; 1.01484E-4
3791.015625; 1.07311E-4
3796.875000; 1.13511E-4
3802.734375; 1.09380E-4
3808.593750; 1.10432E-4
3814.453125; 1.05581E-4
3820.312500; 1.10527E-4
3826.171875; 1.21150E-4
3832.031250; 1.28833E-4
3837.890625; 1.15801E-4
3843.750000; 1.03220E-4
3849.609375; 1.05752E-4
3855.468750; 9.97908E-5
3861.328125; 1.02978E-4
3867.187500; 1.01861E-4
3873.046875; 1.09918E-4
3878.906250; 1.12112E-4
3884.765625; 1.05339E-4
3890.625000; 9.88466E-5
3896.484375; 9.03086E-5
3902.343750; 1.01687E-4
3908.203125; 1.11283E-4
3914.062500; 1.05854E-4
3919.921875; 9.96266E-5
3925.781250; 1.07993E-4
3931.640625; 1.15410E-4
3937.500000; 1.12299E-4
3943.359375; 1.05463E-4
3949.218750; 1.11306E-4
3955.078125; 1.00987E-4
3960.937500; 9.61447E-5
3966.796875; 9.42652E-5
3972.656250; 1.06622E-4
3978.515625; 1.05195E-4
3984.375000; 9.46084E-5
3990.234375; 9.98784E-5
3996.093750; 1.09708E-4
4001.953125; 1.07264E-4
4007.812500; 9.64073E-5
4013.671875; 9.17381E-5
4019.531250; 9.99133E-5
4025.390625; 1.06263E-4
4031.250000; 9.78010E-5
4037.109375; 1.04917E-4
4042.968750; 1.01466E-4
4048.828125; 1.01362E-4
4054.687500; 1.06869E-4
4060.546875; 1.03793E-4
4066.406250; 1.02895E-4
4072.265625; 9.72588E-5
4078.125000; 1.07757E-4
4083.984375; 1.09044E-4
4089.843750; 1.13769E-4
4095.703125; 1.05125E-4
4101.562500; 1.04863E-4
4107.421875; 1.07505E-4
4113.281250; 9.88226E-5
4119.140625; 9.26864E-5
4125.000000; 1.05921E-4
4130.859375; 1.11931E-4
4136.718750; 9.62471E-5
4142.578125; 9.43927E-5
4148.437500; 1.00209E-4
4154.296875; 1.04668E-4
4160.156250; 9.89867E-5
4166.015625; 9.98183E-5
4171.875000; 9.38469E-5
4177.734375; 1.21160E-4
4183.593750; 1.12591E-4
4189.453125; 1.01983E-4
4195.312500; 1.01948E-4
4201.171875; 1.04915E-4
4207.031250; 1.05149E-4
4212.890625; 1.02964E-4
4218.750000; 1.04801E-4
4224.609375; 1.10732E-4
4230.468750; 1.05733E-4
4236.328125; 9.47865E-5
4242.187500; 9.64333E-5
4248.046875; 1.03366E-4
4253.906250; 1.03166E-4
4259.765625; 1.05175E-4
4265.625000; 1.14072E-4
4271.484375; 1.04631E-4
4277.343750; 1.06329E-4
4283.203125; 9.88425E-5
4289.062500; 9.39402E-5
4294.921875; 9.58931E-5
4300.781250; 9.93684E-5
4306.640625; 1.02383E-4
4312.500000; 9.71306E-5
4318.359375; 9.69493E-5
4324.218750; 1.02915E-4
4330.078125; 1.06776E-4
4335.937500; 1.05175E-4
4341.796875; 1.13401E-4
4347.656250; 9.86839E-5
4353.515625; 8.72657E-5
4359.375000; 9.64679E-5
4365.234375; 1.12289E-4
4371.093750; 1.18669E-4
4376.953125; 1.09856E-4
4382.812500; 1.01901E-4
4388.671875; 1.00847E-4
4394.531250; 1.04730E-4
4400.390625; 1.13600E-4
4406.250000; 1.14140E-4
4412.109375; 1.05492E-4
4417.968750; 9.90388E-5
4423.828125; 1.01854E-4
4429.687500; 1.06908E-4
4435.546875; 1.08584E-4
4441.406250; 1.01863E-4
4447.265625; 9.94967E-5
4453.125000; 1.03024E-4
4458.984375; 1.14376E-4
4464.843750; 1.18790E-4
4470.703125; 1.14228E-4
4476.562500; 1.08254E-4
4482.421875; 1.04893E-4
4488.281250; 9.92825E-5
4494.140625; 1.04573E-4
4500.000000; 9.99656E-5
4505.859375; 9.12474E-5
4511.718750; 1.02760E-4
4517.578125; 1.04088E-4
4523.437500; 1.07593E-4
4529.296875; 1.06040E-4
4535.156250; 9.68574E-5
4541.015625; 9.98874E-5
4546.875000; 1.09757E-4
4552.734375; 1.05734E-4
4558.593750; 1.05116E-4
4564.453125; 1.08058E-4
4570.312500; 1.05148E-4
4576.171875; 1.04268E-4
4582.031250; 9.84214E-5
4587.890625; 1.05467E-4
4593.750000; 1.13557E-4
4599.609375; 1.10827E-4
4605.468750; 1.07497E-4
4611.328125; 9.92647E-5
4617.187500; 1.05984E-4
4623.046875; 1.07908E-4
4628.906250; 1.14397E-4
4634.765625; 1.14734E-4
4640.625000; 1.07071E-4
4646.484375; 1.02843E-4
4652.343750; 1.12338E-4
4658.203125; 1.01279E-4
4664.062500; 1.02421E-4
4669.921875; 1.12648E-4
4675.781250; 1.12229E-4
4681.640625; 1.09053E-4
4687.500000; 1.07558E-4
4693.359375; 1.06641E-4
4699.218750; 1.04935E-4
4705.078125; 9.96379E-5
4710.937500; 1.04392E-4
4716.796875; 9.99930E-5
4722.656250; 9.59517E-5
4728.515625; 9.94162E-5
4734.375000; 1.09289E-4
4740.234375; 1.12050E-4
4746.093750; 1.09738E-4
4751.953125; 1.06777E-4
4757.812500; 1.07993E-4
4763.671875; 1.18484E-4
4769.531250; 1.08101E-4
4775.390625; 1.02054E-4
4781.250000; 1.04261E-4
4787.109375; 1.00636E-4
4792.968750; 1.03354E-4
4798.828125; 1.13992E-4
4804.687500; 1.05413E-4
4810.546875; 9.92701E-5
4816.406250; 1.00037E-4
4822.265625; 1.09107E-4
4828.125000; 1.02445E-4
4833.984375; 1.18888E-4
4839.843750; 1.05602E-4
4845.703125; 9.89854E-5
4851.562500; 9.87524E-5
4857.421875; 1.08393E-4
4863.281250; 1.14834E-4
4869.140625; 1.04319E-4
4875.000000; 8.74522E-5
4880.859375; 9.28088E-5
4886.718750; 9.97881E-5
4892.578125; 1.08003E-4
4898.437500; 1.15401E-4
4904.296875; 1.05174E-4
4910.156250; 1.03581E-4
4916.015625; 1.03067E-4
4921.875000; 9.10950E-5
4927.734375; 1.07030E-4
4933.593750; 1.12654E-4
4939.453125; 1.13099E-4
4945.312500; 1.16500E-4
4951.171875; 1.13935E-4
4957.031250; 1.03730E-4
4962.890625; 1.07377E-4
4968.750000; 1.07757E-4
4974.609375; 1.05482E-4
4980.468750; 1.10689E-4
4986.328125; 1.15382E-4
4992.187500; 1.15319E-4
4998.046875; 1.07134E-4
5003.906250; 1.04909E-4
5009.765625; 1.14465E-4
5015.625000; 1.19349E-4
5021.484375; 1.23706E-4
5027.343750; 1.16583E-4
5033.203125; 1.10498E-4
5039.062500; 1.09981E-4
5044.921875; 9.99102E-5
5050.781250; 9.76418E-5
5056.640625; 1.02252E-4
5062.500000; 1.04330E-4
5068.359375; 1.04557E-4
5074.218750; 1.04553E-4
5080.078125; 9.51882E-5
5085.937500; 9.77050E-5
5091.796875; 1.10093E-4
5097.656250; 1.16002E-4
5103.515625; 1.14616E-4
5109.375000; 1.05132E-4
5115.234375; 1.10070E-4
5121.093750; 1.17005E-4
5126.953125; 1.12708E-4
5132.812500; 1.13246E-4
5138.671875; 1.03826E-4
5144.531250; 9.48115E-5
5150.390625; 1.07371E-4
5156.250000; 1.13503E-4
5162.109375; 1.03429E-4
5167.968750; 1.06801E-4
5173.828125; 1.15153E-4
5179.687500; 1.09677E-4
5185.546875; 1.04904E-4
5191.406250; 9.97865E-5
5197.265625; 1.01640E-4
5203.125000; 1.08448E-4
5208.984375; 1.03968E-4
5214.843750; 9.90249E-5
5220.703125; 1.12066E-4
5226.562500; 1.20137E-4
5232.421875; 1.13738E-4
5238.281250; 1.13861E-4
5244.140625; 1.12248E-4
5250.000000; 1.08903E-4
5255.859375; 8.85422E-5
5261.718750; 9.01453E-5
5267.578125; 1.01356E-4
5273.437500; 1.12391E-4
5279.296875; 1.02287E-4
5285.156250; 1.03571E-4
5291.015625; 1.06004E-4
5296.875000; 1.04030E-4
5302.734375; 1.10537E-4
5308.593750; 1.07203E-4
5314.453125; 1.07731E-4
5320.312500; 1.02570E-4
5326.171875; 1.06050E-4
5332.031250; 1.08972E-4
5337.890625; 1.09648E-4
5343.750000; 1.09639E-4
5349.609375; 1.08535E-4
5355.468750; 1.09901E-4
5361.328125; 1.10195E-4
5367.187500; 1.10704E-4
5373.046875; 9.88707E-5
5378.906250; 9.83716E-5
5384.765625; 9.80396E-5
5390.625000; 9.91200E-5
5396.484375; 9.95003E-5
5402.343750; 1.10109E-4
5408.203125; 1.11473E-4
5414.062500; 1.03596E-4
5419.921875; 1.13110E-4
5425.781250; 1.09307E-4
5431.640625; 9.48514E-5
5437.500000; 9.42316E-5
5443.359375; 1.04168E-4
5449.218750; 1.14475E-4
5455.078125; 1.07704E-4
5460.937500; 1.10340E-4
5466.796875; 1.08732E-4
5472.656250; 1.02933E-4
5478.515625; 1.10202E-4
5484.375000; 1.03490E-4
5490.234375; 1.02550E-4
5496.093750; 1.00712E-4
5501.953125; 9.57930E-5
5507.812500; 1.03285E-4
5513.671875; 1.03671E-4
5519.531250; 1.05642E-4
5525.390625; 1.10499E-4
5531.250000; 1.08300E-4
5537.109375; 1.05542E-4
5542.968750; 1.10516E-4
5548.828125; 9.75514E-5
5554.687500; 9.62372E-5
5560.546875; 1.01182E-4
5566.406250; 1.03094E-4
5572.265625; 1.06405E-4
5578.125000; 1.04771E-4
5583.984375; 1.03559E-4
5589.843750; 9.65406E-5
5595.703125; 1.03521E-4
5601.562500; 1.06921E-4
5607.421875; 9.89859E-5
5613.281250; 9.59421E-5
5619.140625; 9.80333E-5
5625.000000; 1.07052E-4
5630.859375; 1.04159E-4
5636.718750; 1.00927E-4
5642.578125; 9.83732E-5
5648.437500; 9.60818E-5
5654.296875; 1.07512E-4
5660.156250; 1.11185E-4
5666.015625; 1.14429E-4
5671.875000; 1.17706E-4
5677.734375; 9.40130E-5
5683.593750; 8.76107E-5
5689.453125; 9.62104E-5
5695.312500; 9.53659E-5
5701.171875; 9.05981E-5
5707.031250; 9.42761E-5
5712.890625; 9.58009E-5
5718.750000; 1.09888E-4
5724.609375; 9.91137E-5
5730.468750; 1.02664E-4
5736.328125; 1.00613E-4
5742.187500; 1.03604E-4
5748.046875; 1.19114E-4
5753.906250; 9.76145E-5
5759.765625; 9.83223E-5
5765.625000; 1.04022E-4
5771.484375; 1.01775E-4
5777.343750; 9.55681E-5
5783.203125; 1.05313E-4
5789.062500; 1.05179E-4
5794.921875; 1.05756E-4
5800.781250; 1.04079E-4
5806.640625; 1.00505E-4
5812.500000; 1.00371E-4
5818.359375; 1.06980E-4
5824.218750; 1.00445E-4
5830.078125; 9.66728E-5
5835.937500; 1.05540E-4
5841.796875; 1.09971E-4
5847.656250; 9.84822E-5
5853.515625; 9.34732E-5
5859.375000; 9.53330E-5
5865.234375; 1.09064E-4
5871.093750; 9.74290E-5
5876.953125; 9.68778E-5
5882.812500; 1.01304E-4
5888.671875; 1.06013E-4
5894.531250; 1.15741E-4
5900.390625; 1.11602E-4
5906.250000; 1.07776E-4
5912.109375; 1.04338E-4
5917.968750; 1.02288E-4
5923.828125; 1.08085E-4
5929.687500; 1.09289E-4
5935.546875; 1.08874E-4
5941.406250; 1.03699E-4
5947.265625; 1.02265E-4
5953.125000; 1.05215E-4
5958.984375; 1.04219E-4
5964.843750; 1.09734E-4
5970.703125; 1.14359E-4
5976.562500; 1.02409E-4
5982.421875; 1.06049E-4
5988.281250; 9.91565E-5
5994.140625; 9.94850E-5
6000.000000; 1.02111E-4
6005.859375; 1.02621E-4
6011.718750; 1.02091E-4
6017.578125; 1.06340E-4
6023.437500; 9.87414E-5
6029.296875; 1.00348E-4
6035.156250; 1.09113E-4
6041.015625; 1.17017E-4
6046.875000; 1.12615E-4
6052.734375; 1.05580E-4
6058.593750; 1.04085E-4
6064.453125; 1.08697E-4
6070.312500; 9.30114E-5
6076.171875; 1.01483E-4
6082.031250; 9.50320E-5
6087.890625; 1.00785E-4
6093.750000; 1.05672E-4
6099.609375; 1.04508E-4
6105.468750; 1.04881E-4
6111.328125; 1.03712E-4
6117.187500; 1.01311E-4
6123.046875; 9.67687E-5
6128.906250; 9.67030E-5
6134.765625; 1.04565E-4
6140.625000; 1.03470E-4
6146.484375; 1.03306E-4
6152.343750; 1.05351E-4
6158.203125; 1.08154E-4
6164.062500; 1.02422E-4
6169.921875; 1.07167E-4
6175.781250; 1.08563E-4
6181.640625; 1.00036E-4
6187.500000; 9.79511E-5
6193.359375; 8.64640E-5
6199.218750; 1.00529E-4
6205.078125; 1.14459E-4
6210.937500; 1.02126E-4
6216.796875; 1.00534E-4
6222.656250; 1.03141E-4
6228.515625; 1.05883E-4
6234.375000; 1.09504E-4
6240.234375; 1.05859E-4
6246.093750; 1.04020E-4
6251.953125; 1.06514E-4
6257.812500; 9.81534E-5
6263.671875; 9.80724E-5
6269.531250; 1.05763E-4
6275.390625; 1.12385E-4
6281.250000; 1.07530E-4
6287.109375; 9.43431E-5
6292.968750; 9.78763E-5
6298.828125; 1.08163E-4
6304.687500; 9.71210E-5
6310.546875; 9.94482E-5
6316.406250; 8.64978E-5
6322.265625; 9.28485E-5
6328.125000; 9.72717E-5
6333.984375; 1.08314E-4
6339.843750; 1.10204E-4
6345.703125; 1.02121E-4
6351.562500; 1.02628E-4
6357.421875; 1.05304E-4
6363.281250; 1.08087E-4
6369.140625; 1.00104E-4
6375.000000; 1.03232E-4
6380.859375; 1.03131E-4
6386.718750; 1.01020E-4
6392.578125; 9.68751E-5
6398.437500; 1.03270E-4
6404.296875; 1.08937E-4
6410.156250; 1.18153E-4
6416.015625; 1.14750E-4
6421.875000; 1.04916E-4
6427.734375; 1.02838E-4
6433.593750; 9.90677E-5
6439.453125; 1.01415E-4
6445.312500; 1.04675E-4
6451.171875; 1.04522E-4
6457.031250; 1.13182E-4
6462.890625; 1.10792E-4
6468.750000; 1.01291E-4
6474.609375; 1.09886E-4
6480.468750; 1.10796E-4
6486.328125; 1.04786E-4
6492.187500; 1.04662E-4
6498.046875; 1.03920E-4
6503.906250; 9.71521E-5
6509.765625; 1.00037E-4
6515.625000; 9.23965E-5
6521.484375; 1.02331E-4
6527.343750; 1.03153E-4
6533.203125; 1.00618E-4
6539.062500; 9.99898E-5
6544.921875; 1.00775E-4
6550.781250; 1.04990E-4
6556.640625; 9.98540E-5
6562.500000; 1.00094E-4
6568.359375; 9.36232E-5
6574.218750; 9.64041E-5
6580.078125; 1.12018E-4
6585.937500; 1.11676E-4
6591.796875; 1.01776E-4
6597.656250; 9.85027E-5
6603.515625; 1.00217E-4
6609.375000; 9.30758E-5
6615.234375; 9.54101E-5
6621.093750; 1.02425E-4
6626.953125; 1.04170E-4
6632.812500; 1.08164E-4
6638.671875; 1.10663E-4
6644.531250; 9.97224E-5
6650.390625; 1.02259E-4
6656.250000; 9.48736E-5
6662.109375; 1.00518E-4
6667.968750; 1.01956E-4
6673.828125; 9.63930E-5
6679.687500; 1.01332E-4
6685.546875; 1.08191E-4
6691.406250; 1.16860E-4
6697.265625; 1.10991E-4
6703.125000; 1.02824E-4
6708.984375; 1.10379E-4
6714.843750; 1.03354E-4
6720.703125; 1.01561E-4
6726.562500; 1.13954E-4
6732.421875; 1.07685E-4
6738.281250; 1.04102E-4
6744.140625; 1.04330E-4
6750.000000; 1.03749E-4
6755.859375; 9.27501E-5
6761.718750; 9.75835E-5
6767.578125; 1.00168E-4
6773.437500; 8.98212E-5
6779.296875; 9.09015E-5
6785.156250; 9.58468E-5
6791.015625; 1.02570E-4
6796.875000; 9.85356E-5
6802.734375; 8.55023E-5
6808.593750; 1.00103E-4
6814.453125; 9.46371E-5
6820.312500; 9.85819E-5
6826.171875; 9.85778E-5
6832.031250; 9.92854E-5
6837.890625; 1.03608E-4
6843.750000; 9.67815E-5
6849.609375; 1.00206E-4
6855.468750; 1.06121E-4
6861.328125; 9.49681E-5
6867.187500; 9.39899E-5
6873.046875; 9.22389E-5
6878.906250; 1.06416E-4
6884.765625; 1.03816E-4
6890.625000; 1.07504E-4
6896.484375; 1.08073E-4
6902.343750; 1.03747E-4
6908.203125; 1.06081E-4
6914.062500; 1.02372E-4
6919.921875; 1.07635E-4
6925.781250; 1.03546E-4
6931.640625; 1.00933E-4
6937.500000; 1.01768E-4
6943.359375; 9.37078E-5
6949.218750; 9.33815E-5
6955.078125; 9.99345E-5
6960.937500; 9.71095E-5
6966.796875; 1.05789E-4
6972.656250; 1.08701E-4
6978.515625; 1.07902E-4
6984.375000; 1.09929E-4
6990.234375; 1.05660E-4
6996.093750; 9.94745E-5
7001.953125; 9.78630E-5
7007.812500; 1.00093E-4
7013.671875; 1.04505E-4
7019.531250; 1.05460E-4
7025.390625; 9.96169E-5
7031.250000; 9.57962E-5
7037.109375; 1.01259E-4
7042.968750; 1.05511E-4
7048.828125; 1.03995E-4
7054.687500; 1.05023E-4
7060.546875; 1.06051E-4
7066.406250; 1.03068E-4
7072.265625; 1.03161E-4
7078.125000; 1.04638E-4
7083.984375; 1.10070E-4
7089.843750; 1.07325E-4
7095.703125; 9.68580E-5
7101.562500; 9.99076E-5
7107.421875; 9.69132E-5
7113.281250; 9.01336E-5
7119.140625; 1.01297E-4
7125.000000; 9.63930E-5
7130.859375; 9.71148E-5
7136.718750; 9.93635E-5
7142.578125; 1.01716E-4
7148.437500; 9.60156E-5
7154.296875; 1.00698E-4
7160.156250; 1.05206E-4
7166.015625; 1.04858E-4
7171.875000; 1.03009E-4
7177.734375; 1.01624E-4
7183.593750; 1.04343E-4
7189.453125; 1.03146E-4
7195.312500; 1.18907E-4
7201.171875; 1.08662E-4
7207.031250; 9.92815E-5
7212.890625; 1.05158E-4
7218.750000; 9.47028E-5
7224.609375; 1.07157E-4
7230.468750; 1.11047E-4
7236.328125; 1.06033E-4
7242.187500; 1.00974E-4
7248.046875; 9.92881E-5
7253.906250; 1.04211E-4
7259.765625; 1.03326E-4
7265.625000; 1.00582E-4
7271.484375; 1.06268E-4
7277.343750; 1.03638E-4
7283.203125; 1.00161E-4
7289.062500; 9.78027E-5
7294.921875; 9.91840E-5
7300.781250; 1.01033E-4
7306.640625; 1.02913E-4
7312.500000; 9.92319E-5
7318.359375; 9.80078E-5
7324.218750; 1.02949E-4
7330.078125; 1.13396E-4
7335.937500; 1.06583E-4
7341.796875; 9.44102E-5
7347.656250; 1.03106E-4
7353.515625; 1.03690E-4
7359.375000; 9.94213E-5
7365.234375; 1.04729E-4
7371.093750; 9.99668E-5
7376.953125; 1.02389E-4
7382.812500; 1.03820E-4
7388.671875; 1.01574E-4
7394.531250; 1.06969E-4
7400.390625; 1.02000E-4
7406.250000; 9.25922E-5
7412.109375; 9.96337E-5
7417.968750; 9.80663E-5
7423.828125; 1.14914E-4
7429.687500; 1.09444E-4
7435.546875; 1.12821E-4
7441.406250; 1.08482E-4
7447.265625; 9.76439E-5
7453.125000; 9.07778E-5
7458.984375; 9.55853E-5
7464.843750; 1.06969E-4
7470.703125; 1.19205E-4
7476.562500; 1.11258E-4
7482.421875; 8.63064E-5
7488.281250; 1.08415E-4
7494.140625; 1.08472E-4
7500.000000; 9.87447E-5
7505.859375; 1.02378E-4
7511.718750; 1.05251E-4
7517.578125; 9.97722E-5
7523.437500; 9.62754E-5
7529.296875; 1.00114E-4
7535.156250; 1.02638E-4
7541.015625; 9.73404E-5
7546.875000; 8.89475E-5
7552.734375; 9.97716E-5
7558.593750; 9.91833E-5
7564.453125; 9.81350E-5
7570.312500; 1.01250E-4
7576.171875; 9.92819E-5
7582.031250; 9.88872E-5
7587.890625; 1.04402E-4
7593.750000; 1.08817E-4
7599.609375; 1.10733E-4
7605.468750; 9.78431E-5
7611.328125; 8.98307E-5
7617.187500; 1.04837E-4
7623.046875; 1.08600E-4
7628.906250; 1.14326E-4
7634.765625; 1.13084E-4
7640.625000; 1.08357E-4
7646.484375; 1.02115E-4
7652.343750; 9.72771E-5
7658.203125; 1.05703E-4
7664.062500; 1.07594E-4
7669.921875; 9.79085E-5
7675.781250; 1.00622E-4
7681.640625; 1.02804E-4
7687.500000; 9.93109E-5
7693.359375; 1.04537E-4
7699.218750; 1.00640E-4
7705.078125; 1.11312E-4
7710.937500; 1.11489E-4
7716.796875; 1.07427E-4
7722.656250; 9.52899E-5
7728.515625; 1.05971E-4
7734.375000; 1.02877E-4
7740.234375; 1.01923E-4
7746.093750; 1.03419E-4
7751.953125; 1.03913E-4
7757.812500; 9.71094E-5
7763.671875; 9.87450E-5
7769.531250; 1.06475E-4
7775.390625; 9.81430E-5
7781.250000; 1.01115E-4
7787.109375; 1.03284E-4
7792.968750; 1.04969E-4
7798.828125; 9.45641E-5
7804.687500; 1.00239E-4
7810.546875; 9.58580E-5
7816.406250; 1.04061E-4
7822.265625; 1.02854E-4
7828.125000; 1.08089E-4
7833.984375; 1.10446E-4
7839.843750; 9.87544E-5
7845.703125; 1.01323E-4
7851.562500; 1.06830E-4
7857.421875; 9.56326E-5
7863.281250; 9.87079E-5
7869.140625; 1.08430E-4
7875.000000; 1.11712E-4
7880.859375; 1.17827E-4
7886.718750; 1.10645E-4
7892.578125; 1.04789E-4
7898.437500; 1.03499E-4
7904.296875; 1.08270E-4
7910.156250; 1.16621E-4
7916.015625; 1.04611E-4
7921.875000; 9.52047E-5
7927.734375; 1.00401E-4
7933.593750; 1.01081E-4
7939.453125; 1.01188E-4
7945.312500; 1.04788E-4
7951.171875; 9.81984E-5
7957.031250; 1.05557E-4
7962.890625; 1.05050E-4
7968.750000; 1.01100E-4
7974.609375; 1.04191E-4
7980.468750; 1.06245E-4
7986.328125; 1.19046E-4
7992.187500; 1.08937E-4
7998.046875; 9.96290E-5
8003.906250; 1.03657E-4
8009.765625; 1.03665E-4
8015.625000; 1.00027E-4
8021.484375; 1.09376E-4
8027.343750; 1.13440E-4
8033.203125; 1.13411E-4
8039.062500; 1.06749E-4
8044.921875; 1.02405E-4
8050.781250; 1.09732E-4
8056.640625; 1.14448E-4
8062.500000; 1.04445E-4
8068.359375; 1.15252E-4
8074.218750; 1.08138E-4
8080.078125; 1.09957E-4
8085.937500; 1.02859E-4
8091.796875; 9.60845E-5
8097.656250; 1.01577E-4
8103.515625; 1.09808E-4
8109.375000; 1.10050E-4
8115.234375; 1.01286E-4
8121.093750; 9.93083E-5
8126.953125; 9.86019E-5
8132.812500; 1.00961E-4
8138.671875; 9.94162E-5
8144.531250; 1.00890E-4
8150.390625; 9.50808E-5
8156.250000; 9.27371E-5
8162.109375; 9.89350E-5
8167.968750; 1.01458E-4
8173.828125; 9.82590E-5
8179.687500; 1.03231E-4
8185.546875; 1.09645E-4
8191.406250; 1.08478E-4
8197.265625; 1.07601E-4
8203.125000; 1.14935E-4
8208.984375; 1.06563E-4
8214.843750; 9.57555E-5
8220.703125; 1.01502E-4
8226.562500; 9.96253E-5
8232.421875; 1.03427E-4
8238.281250; 9.68778E-5
8244.140625; 9.87960E-5
8250.000000; 1.03907E-4
8255.859375; 1.03660E-4
8261.718750; 9.64735E-5
8267.578125; 9.53604E-5
8273.437500; 1.00014E-4
8279.296875; 1.00640E-4
8285.156250; 1.12123E-4
8291.015625; 1.13483E-4
8296.875000; 1.10704E-4
8302.734375; 1.13988E-4
8308.593750; 1.05132E-4
8314.453125; 1.05071E-4
8320.312500; 9.83733E-5
8326.171875; 9.31758E-5
8332.031250; 9.88480E-5
8337.890625; 1.01401E-4
8343.750000; 1.02984E-4
8349.609375; 1.01864E-4
8355.468750; 1.01739E-4
8361.328125; 1.05405E-4
8367.187500; 1.01407E-4
8373.046875; 9.99078E-5
8378.906250; 1.04561E-4
8384.765625; 1.00783E-4
8390.625000; 9.81143E-5
8396.484375; 1.00948E-4
8402.343750; 1.09149E-4
8408.203125; 9.31271E-5
8414.062500; 9.71674E-5
8419.921875; 9.55772E-5
8425.781250; 1.01057E-4
8431.640625; 9.74918E-5
8437.500000; 1.04683E-4
8443.359375; 1.01337E-4
8449.218750; 1.09842E-4
8455.078125; 1.01962E-4
8460.937500; 1.05884E-4
8466.796875; 1.06221E-4
8472.656250; 1.04888E-4
8478.515625; 1.15616E-4
8484.375000; 9.36188E-5
8490.234375; 9.20832E-5
8496.093750; 9.71602E-5
8501.953125; 1.00948E-4
8507.812500; 1.05497E-4
8513.671875; 1.00240E-4
8519.531250; 1.06336E-4
8525.390625; 1.06214E-4
8531.250000; 9.98434E-5
8537.109375; 1.08791E-4
8542.968750; 1.09244E-4
8548.828125; 9.10398E-5
8554.687500; 8.75882E-5
8560.546875; 1.09441E-4
8566.406250; 1.09331E-4
8572.265625; 1.00320E-4
8578.125000; 1.00072E-4
8583.984375; 9.72049E-5
8589.843750; 9.23837E-5
8595.703125; 1.03517E-4
8601.562500; 1.18719E-4
8607.421875; 1.13972E-4
8613.281250; 9.92536E-5
8619.140625; 9.45901E-5
8625.000000; 9.42652E-5
8630.859375; 9.55812E-5
8636.718750; 9.84804E-5
8642.578125; 1.16614E-4
8648.437500; 1.14560E-4
8654.296875; 9.39175E-5
8660.156250; 9.78236E-5
8666.015625; 9.53090E-5
8671.875000; 1.04485E-4
8677.734375; 1.09048E-4
8683.593750; 1.05943E-4
8689.453125; 1.07395E-4
8695.312500; 1.07393E-4
8701.171875; 1.11120E-4
8707.031250; 1.14721E-4
8712.890625; 1.09455E-4
8718.750000; 9.69048E-5
8724.609375; 1.00674E-4
8730.468750; 1.00419E-4
8736.328125; 1.03378E-4
8742.187500; 1.08023E-4
8748.046875; 1.10396E-4
8753.906250; 1.04091E-4
8759.765625; 1.03942E-4
8765.625000; 9.79771E-5
8771.484375; 9.47068E-5
8777.343750; 9.44871E-5
8783.203125; 1.02289E-4
8789.062500; 9.50144E-5
8794.921875; 9.21145E-5
8800.781250; 9.52073E-5
8806.640625; 1.02409E-4
8812.500000; 1.07209E-4
8818.359375; 1.07170E-4
8824.218750; 1.11396E-4
8830.078125; 1.14638E-4
8835.937500; 1.05620E-4
8841.796875; 1.06151E-4
8847.656250; 9.60359E-5
8853.515625; 9.24990E-5
8859.375000; 1.07507E-4
8865.234375; 1.11496E-4
8871.093750; 1.05850E-4
8876.953125; 1.01972E-4
8882.812500; 1.16295E-4
8888.671875; 1.15484E-4
8894.531250; 1.00043E-4
8900.390625; 9.13712E-5
8906.250000; 1.00413E-4
8912.109375; 1.01860E-4
8917.968750; 9.54686E-5
8923.828125; 9.54229E-5
8929.687500; 9.26126E-5
8935.546875; 9.01287E-5
8941.406250; 9.31351E-5
8947.265625; 1.04409E-4
8953.125000; 1.00336E-4
8958.984375; 9.59654E-5
8964.843750; 1.00592E-4
8970.703125; 1.09649E-4
8976.562500; 1.10740E-4
8982.421875; 1.10057E-4
8988.281250; 1.12829E-4
8994.140625; 1.21692E-4
9000.000000; 1.05157E-4
9005.859375; 1.00071E-4
9011.718750; 1.06685E-4
9017.578125; 9.82314E-5
9023.437500; 9.09815E-5
9029.296875; 9.81026E-5
9035.156250; 1.01923E-4
9041.015625; 1.02208E-4
9046.875000; 1.00163E-4
9052.734375; 9.55520E-5
9058.593750; 9.81376E-5
9064.453125; 9.81525E-5
9070.312500; 9.96309E-5
9076.171875; 9.78457E-5
9082.031250; 8.97203E-5
9087.890625; 9.85341E-5
9093.750000; 1.06203E-4
9099.609375; 1.08732E-4
9105.468750; 1.06618E-4
9111.328125; 1.03250E-4
9117.187500; 1.01632E-4
9123.046875; 1.04079E-4
9128.906250; 1.01956E-4
9134.765625; 1.06450E-4
9140.625000; 1.07399E-4
9146.484375; 1.13961E-4
9152.343750; 1.04149E-4
9158.203125; 1.06307E-4
9164.062500; 1.09106E-4
9169.921875; 9.69223E-5
9175.781250; 9.61411E-5
9181.640625; 9.65934E-5
9187.500000; 9.98818E-5
9193.359375; 1.10066E-4
9199.218750; 1.06309E-4
9205.078125; 9.48302E-5
9210.937500; 9.49718E-5
9216.796875; 1.00343E-4
9222.656250; 9.56269E-5
9228.515625; 9.06193E-5
9234.375000; 9.55290E-5
9240.234375; 1.00239E-4
9246.093750; 1.05462E-4
9251.953125; 1.11776E-4
9257.812500; 1.07314E-4
9263.671875; 9.93273E-5
9269.531250; 1.01276E-4
9275.390625; 9.96494E-5
9281.250000; 1.05135E-4
9287.109375; 1.09129E-4
9292.968750; 1.08880E-4
9298.828125; 1.01344E-4
9304.687500; 9.68387E-5
9310.546875; 1.01339E-4
9316.406250; 1.00690E-4
9322.265625; 1.03193E-4
9328.125000; 9.76953E-5
9333.984375; 9.97852E-5
9339.843750; 1.03090E-4
9345.703125; 1.08314E-4
9351.562500; 1.06854E-4
9357.421875; 1.13477E-4
9363.281250; 1.10043E-4
9369.140625; 9.33295E-5
9375.000000; 9.88196E-5
9380.859375; 1.08691E-4
9386.718750; 1.09753E-4
9392.578125; 9.62612E-5
9398.437500; 8.90982E-5
9404.296875; 9.06721E-5
9410.156250; 9.57794E-5
9416.015625; 1.08011E-4
9421.875000; 1.04125E-4
9427.734375; 1.18135E-4
9433.593750; 1.17175E-4
9439.453125; 1.06435E-4
9445.312500; 1.05577E-4
9451.171875; 1.02093E-4
9457.031250; 9.80986E-5
9462.890625; 9.45887E-5
9468.750000; 1.04774E-4
9474.609375; 1.15747E-4
9480.468750; 1.12029E-4
9486.328125; 1.08129E-4
9492.187500; 1.03939E-4
9498.046875; 1.05425E-4
9503.906250; 1.00823E-4
9509.765625; 1.00169E-4
9515.625000; 1.03969E-4
9521.484375; 1.12300E-4
9527.343750; 1.11532E-4
9533.203125; 1.06781E-4
9539.062500; 1.01070E-4
9544.921875; 1.04889E-4
9550.781250; 1.13399E-4
9556.640625; 1.02137E-4
9562.500000; 9.95085E-5
9568.359375; 9.49346E-5
9574.218750; 9.55770E-5
9580.078125; 1.07106E-4
9585.937500; 9.90766E-5
9591.796875; 9.55334E-5
9597.656250; 1.03138E-4
9603.515625; 1.01556E-4
9609.375000; 9.42240E-5
9615.234375; 8.75303E-5
9621.093750; 1.03650E-4
9626.953125; 1.06953E-4
9632.812500; 9.48435E-5
9638.671875; 9.50070E-5
9644.531250; 1.00238E-4
9650.390625; 9.32777E-5
9656.250000; 9.86632E-5
9662.109375; 1.03149E-4
9667.968750; 1.04251E-4
9673.828125; 9.89043E-5
9679.687500; 1.00322E-4
9685.546875; 9.37736E-5
9691.406250; 9.99568E-5
9697.265625; 9.58211E-5
9703.125000; 1.00567E-4
9708.984375; 9.59001E-5
9714.843750; 9.85422E-5
9720.703125; 9.75607E-5
9726.562500; 1.05265E-4
9732.421875; 1.07206E-4
9738.281250; 1.03975E-4
9744.140625; 1.16631E-4
9750.000000; 1.23983E-4
9755.859375; 1.13784E-4
9761.718750; 9.91443E-5
9767.578125; 1.04061E-4
9773.437500; 1.12363E-4
9779.296875; 1.00405E-4
9785.156250; 9.70552E-5
9791.015625; 1.00431E-4
9796.875000; 8.85554E-5
9802.734375; 9.53991E-5
9808.593750; 1.00653E-4
9814.453125; 1.04423E-4
9820.312500; 1.07673E-4
9826.171875; 9.99561E-5
9832.031250; 9.49408E-5
9837.890625; 1.01454E-4
9843.750000; 1.03618E-4
9849.609375; 1.00256E-4
9855.468750; 1.09532E-4
9861.328125; 9.75661E-5
9867.187500; 9.55478E-5
9873.046875; 1.01998E-4
9878.906250; 1.03093E-4
9884.765625; 9.83033E-5
9890.625000; 1.01016E-4
9896.484375; 9.67807E-5
9902.343750; 9.27109E-5
9908.203125; 9.81341E-5
9914.062500; 1.00180E-4
9919.921875; 1.02240E-4
9925.781250; 9.53643E-5
9931.640625; 9.01041E-5
9937.500000; 1.00864E-4
9943.359375; 1.03110E-4
9949.218750; 1.12007E-4
9955.078125; 1.04030E-4
9960.937500; 1.00585E-4
9966.796875; 1.15758E-4
9972.656250; 1.16833E-4
9978.515625; 1.16818E-4
9984.375000; 1.09822E-4
9990.234375; 1.05783E-4
9996.093750; 1.04154E-4
10001.953125; 9.40376E-5
10007.812500; 8.78552E-5
10013.671875; 8.58305E-5
10019.531250; 9.23627E-5
10025.390625; 1.03874E-4
10031.250000; 1.02440E-4
10037.109375; 9.77488E-5
10042.968750; 9.48397E-5
10048.828125; 9.56148E-5
10054.687500; 1.03738E-4
10060.546875; 1.08845E-4
10066.406250; 1.03435E-4
10072.265625; 9.92909E-5
10078.125000; 1.13261E-4
10083.984375; 1.24020E-4
10089.843750; 1.14500E-4
10095.703125; 9.23180E-5
10101.562500; 9.46466E-5
10107.421875; 1.01634E-4
10113.281250; 1.02098E-4
10119.140625; 9.96293E-5
10125.000000; 1.04051E-4
10130.859375; 1.07441E-4
10136.718750; 1.05635E-4
10142.578125; 9.93194E-5
10148.437500; 1.02703E-4
10154.296875; 9.88235E-5
10160.156250; 9.74092E-5
10166.015625; 9.95152E-5
10171.875000; 1.05666E-4
10177.734375; 1.02061E-4
10183.593750; 1.00796E-4
10189.453125; 9.36308E-5
10195.312500; 9.48258E-5
10201.171875; 1.00116E-4
10207.031250; 9.87835E-5
10212.890625; 1.01118E-4
10218.750000; 9.57972E-5
10224.609375; 9.81794E-5
10230.468750; 9.29817E-5
10236.328125; 9.56666E-5
10242.187500; 1.00978E-4
10248.046875; 1.01573E-4
10253.906250; 1.01595E-4
10259.765625; 9.33275E-5
10265.625000; 8.79786E-5
10271.484375; 8.81880E-5
10277.343750; 9.64395E-5
10283.203125; 9.48867E-5
10289.062500; 1.00944E-4
10294.921875; 1.09649E-4
10300.781250; 1.11562E-4
10306.640625; 9.48301E-5
10312.500000; 1.08657E-4
10318.359375; 1.05557E-4
10324.218750; 9.87882E-5
10330.078125; 1.06719E-4
10335.937500; 9.96860E-5
10341.796875; 1.00231E-4
10347.656250; 1.06491E-4
10353.515625; 1.04366E-4
10359.375000; 9.97723E-5
10365.234375; 1.05791E-4
10371.093750; 1.09513E-4
10376.953125; 1.03271E-4
10382.812500; 9.47404E-5
10388.671875; 1.02516E-4
10394.531250; 1.10073E-4
10400.390625; 1.04914E-4
10406.250000; 1.02422E-4
10412.109375; 1.01660E-4
10417.968750; 1.05149E-4
10423.828125; 1.01795E-4
10429.687500; 9.82131E-5
10435.546875; 1.10414E-4
10441.406250; 1.18600E-4
10447.265625; 1.13893E-4
10453.125000; 1.10113E-4
10458.984375; 1.03520E-4
10464.843750; 8.50223E-5
10470.703125; 9.08220E-5
10476.562500; 1.11210E-4
10482.421875; 1.03218E-4
10488.281250; 9.57093E-5
10494.140625; 9.67021E-5
10500.000000; 1.02245E-4
10505.859375; 9.80988E-5
10511.718750; 8.88581E-5
10517.578125; 9.82475E-5
10523.437500; 9.75903E-5
10529.296875; 9.15861E-5
10535.156250; 1.01809E-4
10541.015625; 1.00133E-4
10546.875000; 9.86992E-5
10552.734375; 9.97149E-5
10558.593750; 1.02054E-4
10564.453125; 1.05813E-4
10570.312500; 9.64372E-5
10576.171875; 9.53956E-5
10582.031250; 1.08114E-4
10587.890625; 1.14022E-4
10593.750000; 1.08121E-4
10599.609375; 1.08189E-4
10605.468750; 1.07022E-4
10611.328125; 1.02783E-4
10617.187500; 9.98856E-5
10623.046875; 1.00659E-4
10628.906250; 9.65574E-5
10634.765625; 9.03454E-5
10640.625000; 9.52652E-5
10646.484375; 1.00615E-4
10652.343750; 1.00035E-4
10658.203125; 9.18405E-5
10664.062500; 9.83168E-5
10669.921875; 1.01608E-4
10675.781250; 1.05847E-4
10681.640625; 1.00844E-4
10687.500000; 1.00315E-4
10693.359375; 1.06300E-4
10699.218750; 9.84277E-5
10705.078125; 9.22992E-5
10710.937500; 9.02872E-5
10716.796875; 9.61445E-5
10722.656250; 9.46337E-5
10728.515625; 1.05322E-4
10734.375000; 1.07569E-4
10740.234375; 1.00760E-4
10746.093750; 1.07867E-4
10751.953125; 1.03396E-4
10757.812500; 1.01152E-4
10763.671875; 9.83171E-5
10769.531250; 9.37151E-5
10775.390625; 9.57888E-5
10781.250000; 1.03224E-4
10787.109375; 1.10866E-4
10792.968750; 1.12215E-4
10798.828125; 1.02165E-4
10804.687500; 1.04746E-4
10810.546875; 9.60086E-5
10816.406250; 1.06475E-4
10822.265625; 1.06993E-4
10828.125000; 9.83195E-5
10833.984375; 9.12370E-5
10839.843750; 8.70021E-5
10845.703125; 1.03071E-4
10851.562500; 1.08990E-4
10857.421875; 1.14006E-4
10863.281250; 1.04351E-4
10869.140625; 1.06362E-4
10875.000000; 1.02697E-4
10880.859375; 1.05604E-4
10886.718750; 9.51132E-5
10892.578125; 1.03031E-4
10898.437500; 1.08402E-4
10904.296875; 1.14091E-4
10910.156250; 9.89844E-5
10916.015625; 1.01526E-4
10921.875000; 1.17913E-4
10927.734375; 1.12558E-4
10933.593750; 1.03968E-4
10939.453125; 9.62816E-5
10945.312500; 9.49717E-5
10951.171875; 1.05789E-4
10957.031250; 1.09959E-4
10962.890625; 1.08699E-4
10968.750000; 1.01499E-4
10974.609375; 9.94083E-5
10980.468750; 1.01832E-4
10986.328125; 1.05352E-4
10992.187500; 1.12074E-4
10998.046875; 1.08924E-4
11003.906250; 1.01121E-4
11009.765625; 9.87884E-5
11015.625000; 9.83946E-5
11021.484375; 1.02039E-4
11027.343750; 9.40684E-5
11033.203125; 1.03127E-4
11039.062500; 1.08179E-4
11044.921875; 1.06745E-4
11050.781250; 1.07132E-4
11056.640625; 1.07797E-4
11062.500000; 1.02159E-4
11068.359375; 9.78633E-5
11074.218750; 1.05257E-4
11080.078125; 9.67900E-5
11085.937500; 9.86278E-5
11091.796875; 9.87818E-5
11097.656250; 1.07280E-4
11103.515625; 1.13861E-4
11109.375000; 1.04134E-4
11115.234375; 1.08705E-4
11121.093750; 1.09830E-4
11126.953125; 1.06457E-4
11132.812500; 1.00174E-4
11138.671875; 1.01675E-4
11144.531250; 8.89684E-5
11150.390625; 9.99004E-5
11156.250000; 1.00756E-4
11162.109375; 9.66244E-5
11167.968750; 9.88122E-5
11173.828125; 1.00345E-4
11179.687500; 1.09537E-4
11185.546875; 9.37709E-5
11191.406250; 9.50366E-5
11197.265625; 9.28627E-5
11203.125000; 8.94010E-5
11208.984375; 9.21782E-5
11214.843750; 9.55076E-5
11220.703125; 1.00549E-4
11226.562500; 1.03111E-4
11232.421875; 1.00595E-4
11238.281250; 9.48400E-5
11244.140625; 9.84411E-5
11250.000000; 1.09409E-4
11255.859375; 1.09866E-4
11261.718750; 1.07759E-4
11267.578125; 9.89229E-5
11273.437500; 9.69491E-5
11279.296875; 1.02488E-4
11285.156250; 9.37576E-5
11291.015625; 1.03832E-4
11296.875000; 1.09669E-4
11302.734375; 1.05068E-4
11308.593750; 9.76353E-5
11314.453125; 9.56540E-5
11320.312500; 9.35442E-5
11326.171875; 9.66037E-5
11332.031250; 1.00883E-4
11337.890625; 1.08096E-4
11343.750000; 1.19611E-4
11349.609375; 1.23916E-4
11355.468750; 1.03913E-4
11361.328125; 9.45938E-5
11367.187500; 1.06254E-4
11373.046875; 9.01615E-5
11378.906250; 9.22083E-5
11384.765625; 9.76587E-5
11390.625000; 9.91821E-5
11396.484375; 1.02072E-4
11402.343750; 1.07024E-4
11408.203125; 1.06686E-4
11414.062500; 1.06830E-4
11419.921875; 9.97015E-5
11425.781250; 1.01243E-4
11431.640625; 1.05557E-4
11437.500000; 9.33815E-5
11443.359375; 1.05217E-4
11449.218750; 9.93078E-5
11455.078125; 1.00252E-4
11460.937500; 9.51635E-5
11466.796875; 9.83318E-5
11472.656250; 1.02699E-4
11478.515625; 9.84837E-5
11484.375000; 9.81354E-5
11490.234375; 1.05343E-4
11496.093750; 1.08046E-4
11501.953125; 1.09745E-4
11507.812500; 1.14598E-4
11513.671875; 1.01837E-4
11519.531250; 9.13138E-5
11525.390625; 9.13608E-5
11531.250000; 1.07332E-4
11537.109375; 9.98725E-5
11542.968750; 9.77562E-5
11548.828125; 9.80350E-5
11554.687500; 1.02190E-4
11560.546875; 9.80493E-5
11566.406250; 1.00420E-4
11572.265625; 9.74729E-5
11578.125000; 1.04146E-4
11583.984375; 9.83237E-5
11589.843750; 9.77334E-5
11595.703125; 1.08289E-4
11601.562500; 1.11871E-4
11607.421875; 1.10041E-4
11613.281250; 1.08519E-4
11619.140625; 1.07281E-4
11625.000000; 9.46253E-5
11630.859375; 9.38203E-5
11636.718750; 8.90713E-5
11642.578125; 9.65740E-5
11648.437500; 1.00229E-4
11654.296875; 9.47926E-5
11660.156250; 9.88825E-5
11666.015625; 1.03792E-4
11671.875000; 1.01358E-4
11677.734375; 9.66235E-5
11683.593750; 1.07887E-4
11689.453125; 1.20872E-4
11695.312500; 1.14690E-4
11701.171875; 1.03882E-4
11707.031250; 9.91401E-5
11712.890625; 9.90811E-5
11718.750000; 9.38269E-5
11724.609375; 9.97975E-5
11730.468750; 1.03362E-4
11736.328125; 1.03248E-4
11742.187500; 9.63537E-5
11748.046875; 9.83520E-5
11753.906250; 1.04362E-4
11759.765625; 9.71003E-5
11765.625000; 1.03716E-4
11771.484375; 1.09065E-4
11777.343750; 1.00510E-4
11783.203125; 1.02591E-4
11789.062500; 1.03085E-4
11794.921875; 9.46186E-5
11800.781250; 1.00948E-4
11806.640625; 9.96207E-5
11812.500000; 9.96235E-5
11818.359375; 1.03345E-4
11824.218750; 1.07828E-4
11830.078125; 1.10401E-4
11835.937500; 1.12931E-4
11841.796875; 1.11306E-4
11847.656250; 1.02654E-4
11853.515625; 8.71436E-5
11859.375000; 9.48688E-5
11865.234375; 9.53773E-5
11871.093750; 1.01968E-4
11876.953125; 1.02909E-4
11882.812500; 9.38704E-5
11888.671875; 9.67255E-5
11894.531250; 9.58349E-5
11900.390625; 9.40982E-5
11906.250000; 1.02641E-4
11912.109375; 1.12551E-4
11917.968750; 1.17941E-4
11923.828125; 1.08155E-4
11929.687500; 1.03978E-4
11935.546875; 9.85665E-5
11941.406250; 8.97898E-5
11947.265625; 8.88259E-5
11953.125000; 8.57649E-5
11958.984375; 9.43326E-5
11964.843750; 9.61318E-5
11970.703125; 9.75119E-5
11976.562500; 1.14682E-4
11982.421875; 1.07840E-4
11988.281250; 1.09088E-4
11994.140625; 9.63278E-5
12000.000000; 9.46122E-5
12005.859375; 1.07457E-4
12011.718750; 1.10488E-4
12017.578125; 1.05657E-4
12023.437500; 9.54410E-5
12029.296875; 9.50357E-5
12035.156250; 9.22656E-5
12041.015625; 9.79962E-5
12046.875000; 1.02578E-4
12052.734375; 1.00980E-4
12058.593750; 1.12581E-4
12064.453125; 1.03178E-4
12070.312500; 1.02555E-4
12076.171875; 1.04532E-4
12082.031250; 1.06448E-4
12087.890625; 1.07166E-4
12093.750000; 1.04146E-4
12099.609375; 1.06348E-4
12105.468750; 1.03228E-4
12111.328125; 1.09201E-4
12117.187500; 1.12238E-4
12123.046875; 1.05602E-4
12128.906250; 9.92119E-5
12134.765625; 9.12392E-5
12140.625000; 9.81439E-5
12146.484375; 1.04113E-4
12152.343750; 1.09677E-4
12158.203125; 9.86135E-5
12164.062500; 9.55838E-5
12169.921875; 1.05654E-4
12175.781250; 1.04558E-4
12181.640625; 1.03563E-4
12187.500000; 1.07319E-4
12193.359375; 1.02400E-4
12199.218750; 1.01363E-4
12205.078125; 9.65669E-5
12210.937500; 8.03818E-5
12216.796875; 8.77900E-5
12222.656250; 9.90573E-5
12228.515625; 1.10820E-4
12234.375000; 1.13291E-4
12240.234375; 1.14558E-4
12246.093750; 1.14755E-4
12251.953125; 1.02691E-4
12257.812500; 1.03345E-4
12263.671875; 1.00668E-4
12269.531250; 9.98911E-5
12275.390625; 1.03427E-4
12281.250000; 9.44875E-5
12287.109375; 1.04730E-4
12292.968750; 1.09405E-4
12298.828125; 9.97816E-5
12304.687500; 1.11721E-4
12310.546875; 1.11108E-4
12316.406250; 1.02128E-4
12322.265625; 9.24555E-5
12328.125000; 8.75995E-5
12333.984375; 9.25055E-5
12339.843750; 9.29694E-5
12345.703125; 1.03656E-4
12351.562500; 1.13689E-4
12357.421875; 1.12650E-4
12363.281250; 1.08337E-4
12369.140625; 1.03478E-4
12375.000000; 1.09037E-4
12380.859375; 1.14451E-4
12386.718750; 1.02579E-4
12392.578125; 9.36115E-5
12398.437500; 9.70683E-5
12404.296875; 9.35051E-5
12410.156250; 9.93822E-5
12416.015625; 1.07755E-4
12421.875000; 1.08455E-4
12427.734375; 9.73450E-5
12433.593750; 1.00092E-4
12439.453125; 1.17364E-4
12445.312500; 1.15712E-4
12451.171875; 1.10634E-4
12457.031250; 1.08095E-4
12462.890625; 9.91615E-5
12468.750000; 1.02199E-4
12474.609375; 1.04964E-4
12480.468750; 1.04319E-4
12486.328125; 1.11901E-4
12492.187500; 1.07448E-4
12498.046875; 1.04381E-4
12503.906250; 1.13284E-4
12509.765625; 1.15528E-4
12515.625000; 1.06664E-4
12521.484375; 1.05959E-4
12527.343750; 1.02730E-4
12533.203125; 1.03259E-4
12539.062500; 9.26638E-5
12544.921875; 9.30597E-5
12550.781250; 1.12520E-4
12556.640625; 1.08606E-4
12562.500000; 1.05506E-4
12568.359375; 1.16895E-4
12574.218750; 1.13669E-4
12580.078125; 1.01198E-4
12585.937500; 9.53459E-5
12591.796875; 9.66507E-5
12597.656250; 1.12763E-4
12603.515625; 1.13310E-4
12609.375000; 1.15674E-4
12615.234375; 1.04271E-4
12621.093750; 1.00611E-4
12626.953125; 1.06693E-4
12632.812500; 1.02782E-4
12638.671875; 9.73507E-5
12644.531250; 9.89701E-5
12650.390625; 1.00547E-4
12656.250000; 1.01713E-4
12662.109375; 9.66078E-5
12667.968750; 1.05579E-4
12673.828125; 1.03318E-4
12679.687500; 9.62828E-5
12685.546875; 1.04841E-4
12691.406250; 1.04378E-4
12697.265625; 9.61023E-5
12703.125000; 1.00490E-4
12708.984375; 1.03544E-4
12714.843750; 1.03574E-4
12720.703125; 1.06959E-4
12726.562500; 1.11714E-4
12732.421875; 1.19690E-4
12738.281250; 1.13527E-4
12744.140625; 1.08191E-4
12750.000000; 1.09685E-4
12755.859375; 1.08342E-4
12761.718750; 1.09642E-4
12767.578125; 1.04428E-4
12773.437500; 1.02702E-4
12779.296875; 1.01573E-4
12785.156250; 1.09398E-4
12791.015625; 1.14952E-4
12796.875000; 1.11925E-4
12802.734375; 1.21694E-4
12808.593750; 1.04997E-4
12814.453125; 9.58511E-5
12820.312500; 9.62349E-5
12826.171875; 1.02777E-4
12832.031250; 1.02607E-4
12837.890625; 1.04018E-4
12843.750000; 1.04733E-4
12849.609375; 9.96286E-5
12855.468750; 9.79648E-5
12861.328125; 1.01032E-4
12867.187500; 1.07094E-4
12873.046875; 9.95455E-5
12878.906250; 1.05904E-4
12884.765625; 1.06308E-4
12890.625000; 1.06551E-4
12896.484375; 1.03176E-4
12902.343750; 1.01570E-4
12908.203125; 1.07978E-4
12914.062500; 1.06902E-4
12919.921875; 9.92773E-5
12925.781250; 9.87809E-5
12931.640625; 1.03495E-4
12937.500000; 1.02664E-4
12943.359375; 9.74777E-5
12949.218750; 1.01034E-4
12955.078125; 8.78792E-5
12960.937500; 9.45188E-5
12966.796875; 1.04504E-4
12972.656250; 1.13515E-4
12978.515625; 1.07100E-4
12984.375000; 9.93229E-5
12990.234375; 9.72626E-5
12996.093750; 9.60388E-5
13001.953125; 9.94398E-5
13007.812500; 1.01576E-4
13013.671875; 1.04209E-4
13019.531250; 9.91635E-5
13025.390625; 1.02464E-4
13031.250000; 1.04471E-4
13037.109375; 1.02112E-4
13042.968750; 1.01596E-4
13048.828125; 1.07332E-4
13054.687500; 1.04741E-4
13060.546875; 9.80493E-5
13066.406250; 9.78768E-5
13072.265625; 9.39240E-5
13078.125000; 9.62982E-5
13083.984375; 1.03816E-4
13089.843750; 1.06147E-4
13095.703125; 8.94281E-5
13101.562500; 9.78604E-5
13107.421875; 1.04653E-4
13113.281250; 9.94724E-5
13119.140625; 9.63672E-5
13125.000000; 1.00778E-4
13130.859375; 1.07065E-4
13136.718750; 1.02974E-4
13142.578125; 1.04545E-4
13148.437500; 1.07044E-4
13154.296875; 1.05397E-4
13160.156250; 8.99038E-5
13166.015625; 9.24143E-5
13171.875000; 9.33708E-5
13177.734375; 1.02937E-4
13183.593750; 9.70336E-5
13189.453125; 9.29461E-5
13195.312500; 9.68501E-5
13201.171875; 9.79241E-5
13207.031250; 1.13367E-4
13212.890625; 1.07737E-4
13218.750000; 9.93740E-5
13224.609375; 1.04481E-4
13230.468750; 1.02750E-4
13236.328125; 9.24293E-5
13242.187500; 1.02934E-4
13248.046875; 1.07063E-4
13253.906250; 1.03147E-4
13259.765625; 9.08790E-5
13265.625000; 9.39729E-5
13271.484375; 9.63437E-5
13277.343750; 9.85731E-5
13283.203125; 9.50140E-5
13289.062500; 9.78705E-5
13294.921875; 1.01013E-4
13300.781250; 1.01371E-4
13306.640625; 1.14394E-4
13312.500000; 1.01040E-4
13318.359375; 9.50039E-5
13324.218750; 9.32130E-5
13330.078125; 9.65066E-5
13335.937500; 9.88047E-5
13341.796875; 1.01104E-4
13347.656250; 1.06024E-4
13353.515625; 1.04250E-4
13359.375000; 1.08674E-4
13365.234375; 1.11911E-4
13371.093750; 1.12203E-4
13376.953125; 1.06876E-4
13382.812500; 1.10614E-4
13388.671875; 9.50626E-5
13394.531250; 9.45081E-5
13400.390625; 1.11682E-4
13406.250000; 1.16350E-4
13412.109375; 1.11866E-4
13417.968750; 9.90498E-5
13423.828125; 9.99295E-5
13429.687500; 1.04881E-4
13435.546875; 1.07549E-4
13441.406250; 1.08989E-4
13447.265625; 1.03252E-4
13453.125000; 9.88063E-5
13458.984375; 9.84682E-5
13464.843750; 9.75453E-5
13470.703125; 1.08551E-4
13476.562500; 1.05361E-4
13482.421875; 1.13751E-4
13488.281250; 1.14524E-4
13494.140625; 9.75598E-5
13500.000000; 9.13900E-5
13505.859375; 8.33201E-5
13511.718750; 8.87925E-5
13517.578125; 9.77006E-5
13523.437500; 9.81854E-5
13529.296875; 9.28237E-5
13535.156250; 1.02672E-4
13541.015625; 1.09581E-4
13546.875000; 1.06113E-4
13552.734375; 8.44123E-5
13558.593750; 8.98585E-5
13564.453125; 9.98787E-5
13570.312500; 9.60288E-5
13576.171875; 1.00937E-4
13582.031250; 9.69889E-5
13587.890625; 8.79979E-5
13593.750000; 9.28749E-5
13599.609375; 9.52120E-5
13605.468750; 8.82091E-5
13611.328125; 1.03000E-4
13617.187500; 1.06363E-4
13623.046875; 1.10935E-4
13628.906250; 1.03237E-4
13634.765625; 1.04982E-4
13640.625000; 9.45220E-5
13646.484375; 9.08893E-5
13652.343750; 7.97810E-5
13658.203125; 9.26864E-5
13664.062500; 9.76131E-5
13669.921875; 9.91443E-5
13675.781250; 1.01976E-4
13681.640625; 1.04813E-4
13687.500000; 9.89804E-5
13693.359375; 9.65458E-5
13699.218750; 9.94646E-5
13705.078125; 9.71999E-5
13710.937500; 9.21229E-5
13716.796875; 9.47104E-5
13722.656250; 9.76323E-5
13728.515625; 1.06885E-4
13734.375000; 1.03765E-4
13740.234375; 1.04803E-4
13746.093750; 1.11854E-4
13751.953125; 1.18523E-4
13757.812500; 9.82410E-5
13763.671875; 9.11797E-5
13769.531250; 9.87301E-5
13775.390625; 9.23430E-5
13781.250000; 9.42715E-5
13787.109375; 1.05332E-4
13792.968750; 1.07508E-4
13798.828125; 9.97160E-5
13804.687500; 1.02263E-4
13810.546875; 9.76996E-5
13816.406250; 8.48367E-5
13822.265625; 9.71474E-5
13828.125000; 1.06293E-4
13833.984375; 1.05734E-4
13839.843750; 1.00406E-4
13845.703125; 9.76190E-5
13851.562500; 8.94521E-5
13857.421875; 1.02027E-4
13863.281250; 1.11871E-4
13869.140625; 1.04946E-4
13875.000000; 8.94550E-5
13880.859375; 9.26795E-5
13886.718750; 1.01520E-4
13892.578125; 9.90107E-5
13898.437500; 9.85088E-5
13904.296875; 9.66419E-5
13910.156250; 9.89139E-5
13916.015625; 1.05272E-4
13921.875000; 1.04452E-4
13927.734375; 9.15553E-5
13933.593750; 8.99420E-5
13939.453125; 9.97503E-5
13945.312500; 1.02824E-4
13951.171875; 9.26584E-5
13957.031250; 8.87928E-5
13962.890625; 1.01691E-4
13968.750000; 1.11892E-4
13974.609375; 1.12767E-4
13980.468750; 9.81585E-5
13986.328125; 9.52291E-5
13992.187500; 8.89898E-5
13998.046875; 9.15413E-5
14003.906250; 9.64028E-5
14009.765625; 8.99027E-5
14015.625000; 8.81093E-5
14021.484375; 9.63054E-5
14027.343750; 9.76135E-5
14033.203125; 1.01156E-4
14039.062500; 1.01651E-4
14044.921875; 1.07856E-4
14050.781250; 9.68518E-5
14056.640625; 1.00815E-4
14062.500000; 1.05666E-4
14068.359375; 9.21946E-5
14074.218750; 9.39330E-5
14080.078125; 9.36358E-5
14085.937500; 1.01658E-4
14091.796875; 1.07624E-4
14097.656250; 1.04136E-4
14103.515625; 1.04661E-4
14109.375000; 1.01802E-4
14115.234375; 1.02158E-4
14121.093750; 1.04787E-4
14126.953125; 1.08768E-4
14132.812500; 1.04011E-4
14138.671875; 1.02634E-4
14144.531250; 1.05351E-4
14150.390625; 9.25928E-5
14156.250000; 9.17722E-5
14162.109375; 9.57999E-5
14167.968750; 1.07365E-4
14173.828125; 1.09185E-4
14179.687500; 1.03144E-4
14185.546875; 1.03440E-4
14191.406250; 1.03274E-4
14197.265625; 9.04773E-5
14203.125000; 9.92411E-5
14208.984375; 1.08529E-4
14214.843750; 1.01675E-4
14220.703125; 1.02939E-4
14226.562500; 1.07546E-4
14232.421875; 1.00933E-4
14238.281250; 9.59258E-5
14244.140625; 9.72979E-5
14250.000000; 9.40639E-5
14255.859375; 1.05293E-4
14261.718750; 1.04509E-4
14267.578125; 1.14531E-4
14273.437500; 1.08939E-4
14279.296875; 9.40150E-5
14285.156250; 1.05725E-4
14291.015625; 1.08524E-4
14296.875000; 1.04760E-4
14302.734375; 1.09058E-4
14308.593750; 1.10887E-4
14314.453125; 9.77916E-5
14320.312500; 9.78989E-5
14326.171875; 1.10035E-4
14332.031250; 1.17087E-4
14337.890625; 1.12492E-4
14343.750000; 9.94550E-5
14349.609375; 9.90198E-5
14355.468750; 9.58542E-5
14361.328125; 8.51266E-5
14367.187500; 1.03457E-4
14373.046875; 1.10682E-4
14378.906250; 9.31265E-5
14384.765625; 9.74918E-5
14390.625000; 9.96438E-5
14396.484375; 1.07772E-4
14402.343750; 1.04143E-4
14408.203125; 9.68206E-5
14414.062500; 9.57811E-5
14419.921875; 9.55957E-5
14425.781250; 8.14146E-5
14431.640625; 9.94293E-5
14437.500000; 1.07971E-4
14443.359375; 1.02545E-4
14449.218750; 1.06471E-4
14455.078125; 1.07859E-4
14460.937500; 1.03887E-4
14466.796875; 1.12624E-4
14472.656250; 1.15977E-4
14478.515625; 1.07022E-4
14484.375000; 1.01054E-4
14490.234375; 9.49553E-5
14496.093750; 9.97767E-5
14501.953125; 9.75798E-5
14507.812500; 9.18131E-5
14513.671875; 9.91352E-5
14519.531250; 1.02638E-4
14525.390625; 9.21606E-5
14531.250000; 8.98361E-5
14537.109375; 9.76496E-5
14542.968750; 9.61047E-5
14548.828125; 1.00563E-4
14554.687500; 1.02018E-4
14560.546875; 8.87702E-5
14566.406250; 8.89987E-5
14572.265625; 1.03867E-4
14578.125000; 1.07937E-4
14583.984375; 1.02079E-4
14589.843750; 1.05783E-4
14595.703125; 1.16775E-4
14601.562500; 1.07793E-4
14607.421875; 8.88086E-5
14613.281250; 9.59579E-5
14619.140625; 9.99284E-5
14625.000000; 9.15717E-5
14630.859375; 9.78749E-5
14636.718750; 1.01018E-4
14642.578125; 9.80630E-5
14648.437500; 1.07930E-4
14654.296875; 9.84855E-5
14660.156250; 9.44697E-5
14666.015625; 1.04551E-4
14671.875000; 9.85742E-5
14677.734375; 1.04845E-4
14683.593750; 1.09420E-4
14689.453125; 9.63232E-5
14695.312500; 1.03024E-4
14701.171875; 9.62556E-5
14707.031250; 9.25113E-5
14712.890625; 8.38690E-5
14718.750000; 9.13918E-5
14724.609375; 9.86539E-5
14730.468750; 8.81984E-5
14736.328125; 8.88841E-5
14742.187500; 8.51465E-5
14748.046875; 9.97343E-5
14753.906250; 1.02050E-4
14759.765625; 9.49139E-5
14765.625000; 1.02083E-4
14771.484375; 1.10206E-4
14777.343750; 9.49994E-5
14783.203125; 1.05831E-4
14789.062500; 1.15422E-4
14794.921875; 1.02084E-4
14800.781250; 9.82564E-5
14806.640625; 1.02171E-4
14812.500000; 1.02947E-4
14818.359375; 9.39273E-5
14824.218750; 9.80463E-5
14830.078125; 1.03511E-4
14835.937500; 1.01568E-4
14841.796875; 1.15469E-4
14847.656250; 1.13089E-4
14853.515625; 9.18463E-5
14859.375000; 9.99268E-5
14865.234375; 9.95850E-5
14871.093750; 9.29827E-5
14876.953125; 9.83891E-5
14882.812500; 8.98969E-5
14888.671875; 9.30382E-5
14894.531250; 9.94269E-5
14900.390625; 9.76533E-5
14906.250000; 9.81313E-5
14912.109375; 9.51071E-5
14917.968750; 9.83934E-5
14923.828125; 1.00932E-4
14929.687500; 1.05633E-4
14935.546875; 9.67367E-5
14941.406250; 9.60668E-5
14947.265625; 1.05044E-4
14953.125000; 1.00911E-4
14958.984375; 9.92114E-5
14964.843750; 1.01160E-4
14970.703125; 9.60819E-5
14976.562500; 9.79432E-5
14982.421875; 9.66134E-5
14988.281250; 9.66713E-5
14994.140625; 1.00872E-4
15000.000000; 1.00806E-4
15005.859375; 1.00587E-4
15011.718750; 1.07991E-4
15017.578125; 1.06291E-4
15023.437500; 9.97169E-5
15029.296875; 1.01091E-4
15035.156250; 1.13318E-4
15041.015625; 1.09535E-4
15046.875000; 1.01144E-4
15052.734375; 9.95785E-5
15058.593750; 1.01794E-4
15064.453125; 1.00908E-4
15070.312500; 9.81018E-5
15076.171875; 9.93574E-5
15082.031250; 1.00029E-4
15087.890625; 1.05238E-4
15093.750000; 1.09969E-4
15099.609375; 9.37354E-5
15105.468750; 9.72648E-5
15111.328125; 9.76527E-5
15117.187500; 8.98470E-5
15123.046875; 8.34933E-5
15128.906250; 9.96678E-5
15134.765625; 1.00041E-4
15140.625000; 9.78708E-5
15146.484375; 9.54723E-5
15152.343750; 9.39590E-5
15158.203125; 9.50890E-5
15164.062500; 9.31953E-5
15169.921875; 9.50872E-5
15175.781250; 9.57798E-5
15181.640625; 9.45937E-5
15187.500000; 8.63579E-5
15193.359375; 9.61747E-5
15199.218750; 1.01863E-4
15205.078125; 9.41505E-5
15210.937500; 9.26508E-5
15216.796875; 1.00880E-4
15222.656250; 1.06336E-4
15228.515625; 1.00254E-4
15234.375000; 8.86246E-5
15240.234375; 9.75779E-5
15246.093750; 1.10805E-4
15251.953125; 1.02677E-4
15257.812500; 9.79239E-5
15263.671875; 1.01965E-4
15269.531250; 1.05156E-4
15275.390625; 1.05275E-4
15281.250000; 9.77980E-5
15287.109375; 1.01217E-4
15292.968750; 9.96349E-5
15298.828125; 9.86196E-5
15304.687500; 9.42055E-5
15310.546875; 9.14923E-5
15316.406250; 8.92659E-5
15322.265625; 9.75170E-5
15328.125000; 1.05162E-4
15333.984375; 1.04544E-4
15339.843750; 1.03214E-4
15345.703125; 1.12732E-4
15351.562500; 1.08292E-4
15357.421875; 1.04666E-4
15363.281250; 1.03173E-4
15369.140625; 1.08454E-4
15375.000000; 9.50719E-5
15380.859375; 9.26141E-5
15386.718750; 9.40809E-5
15392.578125; 9.81761E-5
15398.437500; 1.00210E-4
15404.296875; 9.74151E-5
15410.156250; 1.00881E-4
15416.015625; 1.04331E-4
15421.875000; 1.09487E-4
15427.734375; 9.73194E-5
15433.593750; 9.10371E-5
15439.453125; 1.08792E-4
15445.312500; 1.07338E-4
15451.171875; 1.02597E-4
15457.031250; 9.50666E-5
15462.890625; 9.59567E-5
15468.750000; 1.01640E-4
15474.609375; 9.81604E-5
15480.468750; 9.59814E-5
15486.328125; 1.00822E-4
15492.187500; 9.77456E-5
15498.046875; 9.83339E-5
15503.906250; 9.36702E-5
15509.765625; 9.47304E-5
15515.625000; 9.98259E-5
15521.484375; 9.84483E-5
15527.343750; 9.09383E-5
15533.203125; 8.74585E-5
15539.062500; 8.72416E-5
15544.921875; 9.35025E-5
15550.781250; 9.49005E-5
15556.640625; 9.14999E-5
15562.500000; 9.12927E-5
15568.359375; 9.58858E-5
15574.218750; 1.01351E-4
15580.078125; 1.00168E-4
15585.937500; 1.01318E-4
15591.796875; 1.09035E-4
15597.656250; 1.05267E-4
15603.515625; 9.71582E-5
15609.375000; 9.81414E-5
15615.234375; 9.71742E-5
15621.093750; 9.33990E-5
15626.953125; 9.30373E-5
15632.812500; 9.43971E-5
15638.671875; 8.66241E-5
15644.531250; 9.54722E-5
15650.390625; 9.16556E-5
15656.250000; 1.04167E-4
15662.109375; 1.10583E-4
15667.968750; 1.02890E-4
15673.828125; 9.50970E-5
15679.687500; 8.71670E-5
15685.546875; 9.07303E-5
15691.406250; 1.03505E-4
15697.265625; 1.13908E-4
15703.125000; 9.21050E-5
15708.984375; 8.78433E-5
15714.843750; 9.13948E-5
15720.703125; 9.86228E-5
15726.562500; 9.93977E-5
15732.421875; 9.79067E-5
15738.281250; 1.05681E-4
15744.140625; 9.97588E-5
15750.000000; 1.02894E-4
15755.859375; 9.43254E-5
15761.718750; 9.66186E-5
15767.578125; 9.71568E-5
15773.437500; 9.25573E-5
15779.296875; 1.00784E-4
15785.156250; 1.03090E-4
15791.015625; 1.05734E-4
15796.875000; 9.82544E-5
15802.734375; 9.21075E-5
15808.593750; 9.30906E-5
15814.453125; 9.59048E-5
15820.312500; 9.76210E-5
15826.171875; 1.07424E-4
15832.031250; 1.02310E-4
15837.890625; 9.34871E-5
15843.750000; 9.25365E-5
15849.609375; 9.44462E-5
15855.468750; 1.04325E-4
15861.328125; 9.82795E-5
15867.187500; 1.00123E-4
15873.046875; 9.79197E-5
15878.906250; 9.82556E-5
15884.765625; 1.06002E-4
15890.625000; 9.87587E-5
15896.484375; 9.52304E-5
15902.343750; 1.08046E-4
15908.203125; 1.04186E-4
15914.062500; 9.98296E-5
15919.921875; 1.00697E-4
15925.781250; 1.02283E-4
15931.640625; 9.45892E-5
15937.500000; 1.05387E-4
15943.359375; 1.01447E-4
15949.218750; 1.02264E-4
15955.078125; 1.04700E-4
15960.937500; 1.10668E-4
15966.796875; 1.00022E-4
15972.656250; 1.01596E-4
15978.515625; 1.06007E-4
15984.375000; 1.00841E-4
15990.234375; 1.05556E-4
15996.093750; 9.28906E-5
16001.953125; 9.67900E-5
16007.812500; 1.02994E-4
16013.671875; 1.04057E-4
16019.531250; 1.06635E-4
16025.390625; 9.81685E-5
16031.250000; 9.79493E-5
16037.109375; 1.02524E-4
16042.968750; 1.05900E-4
16048.828125; 1.00649E-4
16054.687500; 1.05681E-4
16060.546875; 1.05098E-4
16066.406250; 1.10366E-4
16072.265625; 1.05749E-4
16078.125000; 9.65948E-5
16083.984375; 9.82263E-5
16089.843750; 1.02745E-4
16095.703125; 1.08331E-4
16101.562500; 1.06644E-4
16107.421875; 1.05571E-4
16113.281250; 1.09266E-4
16119.140625; 1.01847E-4
16125.000000; 1.03771E-4
16130.859375; 9.96240E-5
16136.718750; 9.76996E-5
16142.578125; 9.67842E-5
16148.437500; 1.06911E-4
16154.296875; 1.03177E-4
16160.156250; 9.27858E-5
16166.015625; 9.68798E-5
16171.875000; 1.09562E-4
16177.734375; 1.04574E-4
16183.593750; 9.34331E-5
16189.453125; 9.39624E-5
16195.312500; 9.73526E-5
16201.171875; 9.77930E-5
16207.031250; 1.01399E-4
16212.890625; 9.84163E-5
16218.750000; 1.02771E-4
16224.609375; 1.11188E-4
16230.468750; 1.07030E-4
16236.328125; 9.83983E-5
16242.187500; 9.63591E-5
16248.046875; 8.91343E-5
16253.906250; 8.85449E-5
16259.765625; 9.86310E-5
16265.625000; 1.04127E-4
16271.484375; 1.00546E-4
16277.343750; 8.95333E-5
16283.203125; 9.34895E-5
16289.062500; 9.23871E-5
16294.921875; 9.59738E-5
16300.781250; 9.80464E-5
16306.640625; 9.15919E-5
16312.500000; 9.78276E-5
16318.359375; 9.74620E-5
16324.218750; 9.69820E-5
16330.078125; 1.04221E-4
16335.937500; 1.01852E-4
16341.796875; 1.01579E-4
16347.656250; 1.05786E-4
16353.515625; 9.84025E-5
16359.375000; 1.01308E-4
16365.234375; 1.06176E-4
16371.093750; 1.02748E-4
16376.953125; 8.84705E-5
16382.812500; 9.39325E-5
16388.671875; 9.99867E-5
16394.531250; 1.05960E-4
16400.390625; 9.80797E-5
16406.250000; 9.97662E-5
16412.109375; 8.47442E-5
16417.968750; 9.05317E-5
16423.828125; 9.63717E-5
16429.687500; 1.05869E-4
16435.546875; 1.03518E-4
16441.406250; 9.93801E-5
16447.265625; 1.01510E-4
16453.125000; 9.78084E-5
16458.984375; 9.12228E-5
16464.843750; 9.11474E-5
16470.703125; 9.49984E-5
16476.562500; 9.96385E-5
16482.421875; 1.03142E-4
16488.281250; 1.04623E-4
16494.140625; 1.02268E-4
16500.000000; 1.05353E-4
16505.859375; 1.13226E-4
16511.718750; 9.48184E-5
16517.578125; 8.87024E-5
16523.437500; 9.63356E-5
16529.296875; 9.73660E-5
16535.156250; 1.00801E-4
16541.015625; 1.02256E-4
16546.875000; 1.05477E-4
16552.734375; 1.02662E-4
16558.593750; 1.01668E-4
16564.453125; 9.36167E-5
16570.312500; 9.20764E-5
16576.171875; 1.07050E-4
16582.031250; 1.11454E-4
16587.890625; 9.08600E-5
16593.750000; 1.03956E-4
16599.609375; 9.81946E-5
16605.468750; 9.39283E-5
16611.328125; 8.93075E-5
16617.187500; 9.73754E-5
16623.046875; 1.03877E-4
16628.906250; 1.13259E-4
16634.765625; 1.10703E-4
16640.625000; 1.05804E-4
16646.484375; 1.09985E-4
16652.343750; 9.09502E-5
16658.203125; 9.72852E-5
16664.062500; 1.00712E-4
16669.921875; 9.30308E-5
16675.781250; 9.51163E-5
16681.640625; 9.83421E-5
16687.500000; 1.03129E-4
16693.359375; 1.00852E-4
16699.218750; 9.92633E-5
16705.078125; 1.00607E-4
16710.937500; 9.76448E-5
16716.796875; 1.04459E-4
16722.656250; 1.10727E-4
16728.515625; 1.08248E-4
16734.375000; 1.04645E-4
16740.234375; 1.01003E-4
16746.093750; 1.01375E-4
16751.953125; 9.70813E-5
16757.812500; 9.75839E-5
16763.671875; 1.07339E-4
16769.531250; 1.00869E-4
16775.390625; 9.00417E-5
16781.250000; 9.40789E-5
16787.109375; 9.74710E-5
16792.968750; 9.31399E-5
16798.828125; 1.04793E-4
16804.687500; 1.06381E-4
16810.546875; 9.36501E-5
16816.406250; 9.32187E-5
16822.265625; 9.73429E-5
16828.125000; 1.02615E-4
16833.984375; 8.90109E-5
16839.843750; 8.84538E-5
16845.703125; 9.99201E-5
16851.562500; 1.01519E-4
16857.421875; 1.00835E-4
16863.281250; 9.12731E-5
16869.140625; 9.30387E-5
16875.000000; 9.26004E-5
16880.859375; 9.23774E-5
16886.718750; 1.09160E-4
16892.578125; 9.91017E-5
16898.437500; 9.84422E-5
16904.296875; 1.04461E-4
16910.156250; 1.01774E-4
16916.015625; 9.46209E-5
16921.875000; 1.01174E-4
16927.734375; 1.01673E-4
16933.593750; 9.29522E-5
16939.453125; 9.57017E-5
16945.312500; 9.84142E-5
16951.171875; 9.64031E-5
16957.031250; 9.83672E-5
16962.890625; 9.68805E-5
16968.750000; 1.03924E-4
16974.609375; 9.63287E-5
16980.468750; 8.82785E-5
16986.328125; 9.15204E-5
16992.187500; 9.25002E-5
16998.046875; 1.12139E-4
17003.906250; 1.05074E-4
17009.765625; 1.00262E-4
17015.625000; 9.31087E-5
17021.484375; 1.00828E-4
17027.343750; 1.06991E-4
17033.203125; 9.44228E-5
17039.062500; 8.90493E-5
17044.921875; 9.96027E-5
17050.781250; 1.03354E-4
17056.640625; 1.01478E-4
17062.500000; 9.95578E-5
17068.359375; 9.04447E-5
17074.218750; 9.79167E-5
17080.078125; 9.07155E-5
17085.937500; 8.54595E-5
17091.796875; 9.10016E-5
17097.656250; 8.78759E-5
17103.515625; 9.08253E-5
17109.375000; 8.78251E-5
17115.234375; 1.01080E-4
17121.093750; 9.84658E-5
17126.953125; 9.16530E-5
17132.812500; 9.30510E-5
17138.671875; 9.99658E-5
17144.531250; 1.00007E-4
17150.390625; 9.81063E-5
17156.250000; 1.02669E-4
17162.109375; 9.97078E-5
17167.968750; 9.96824E-5
17173.828125; 9.55586E-5
17179.687500; 8.98934E-5
17185.546875; 8.61543E-5
17191.406250; 9.71923E-5
17197.265625; 9.82250E-5
17203.125000; 9.21270E-5
17208.984375; 9.28769E-5
17214.843750; 9.44610E-5
17220.703125; 9.97877E-5
17226.562500; 1.04515E-4
17232.421875; 1.08832E-4
17238.281250; 1.08721E-4
17244.140625; 1.05640E-4
17250.000000; 9.19998E-5
17255.859375; 9.17582E-5
17261.718750; 8.94774E-5
17267.578125; 9.41897E-5
17273.437500; 1.07058E-4
17279.296875; 1.08174E-4
17285.156250; 1.00885E-4
17291.015625; 9.29735E-5
17296.875000; 9.19334E-5
17302.734375; 8.90655E-5
17308.593750; 9.97768E-5
17314.453125; 1.11632E-4
17320.312500; 1.03214E-4
17326.171875; 8.55472E-5
17332.031250; 9.71195E-5
17337.890625; 9.60291E-5
17343.750000; 1.06255E-4
17349.609375; 1.01544E-4
17355.468750; 1.01899E-4
17361.328125; 1.03162E-4
17367.187500; 1.00867E-4
17373.046875; 9.91459E-5
17378.906250; 9.78665E-5
17384.765625; 9.97518E-5
17390.625000; 9.02269E-5
17396.484375; 8.72833E-5
17402.343750; 8.77975E-5
17408.203125; 9.00570E-5
17414.062500; 9.04535E-5
17419.921875; 8.62030E-5
17425.781250; 8.10903E-5
17431.640625; 9.76755E-5
17437.500000; 1.03488E-4
17443.359375; 1.05259E-4
17449.218750; 1.00095E-4
17455.078125; 1.06302E-4
17460.937500; 1.07120E-4
17466.796875; 1.03642E-4
17472.656250; 1.07829E-4
17478.515625; 1.01157E-4
17484.375000; 1.01738E-4
17490.234375; 9.79720E-5
17496.093750; 9.65293E-5
17501.953125; 9.41524E-5
17507.812500; 9.19474E-5
17513.671875; 1.02106E-4
17519.531250; 9.89061E-5
17525.390625; 1.05519E-4
17531.250000; 1.14775E-4
17537.109375; 1.13311E-4
17542.968750; 9.78110E-5
17548.828125; 1.00438E-4
17554.687500; 1.01978E-4
17560.546875; 9.43728E-5
17566.406250; 9.08371E-5
17572.265625; 1.03433E-4
17578.125000; 1.01715E-4
17583.984375; 1.00677E-4
17589.843750; 1.00393E-4
17595.703125; 1.02967E-4
17601.562500; 1.03670E-4
17607.421875; 1.09782E-4
17613.281250; 1.07916E-4
17619.140625; 9.96340E-5
17625.000000; 9.89701E-5
17630.859375; 9.80107E-5
17636.718750; 9.69238E-5
17642.578125; 1.00232E-4
17648.437500; 9.64895E-5
17654.296875; 9.04516E-5
17660.156250; 1.02201E-4
17666.015625; 9.39966E-5
17671.875000; 8.71827E-5
17677.734375; 8.18730E-5
17683.593750; 9.25030E-5
17689.453125; 9.82339E-5
17695.312500; 9.40726E-5
17701.171875; 9.50418E-5
17707.031250; 8.83315E-5
17712.890625; 9.23185E-5
17718.750000; 9.57671E-5
17724.609375; 9.11235E-5
17730.468750; 8.88778E-5
17736.328125; 9.72113E-5
17742.187500; 8.91931E-5
17748.046875; 9.67669E-5
17753.906250; 9.67655E-5
17759.765625; 8.98165E-5
17765.625000; 8.39067E-5
17771.484375; 9.15085E-5
17777.343750; 9.66472E-5
17783.203125; 1.02791E-4
17789.062500; 1.09075E-4
17794.921875; 1.01354E-4
17800.781250; 9.31006E-5
17806.640625; 9.14027E-5
17812.500000; 9.28396E-5
17818.359375; 9.68395E-5
17824.218750; 9.96304E-5
17830.078125; 1.01214E-4
17835.937500; 1.00992E-4
17841.796875; 1.08026E-4
17847.656250; 1.00879E-4
17853.515625; 9.77171E-5
17859.375000; 1.01381E-4
17865.234375; 8.92296E-5
17871.093750; 9.08486E-5
17876.953125; 1.02479E-4
17882.812500; 1.03054E-4
17888.671875; 1.01307E-4
17894.531250; 9.58653E-5
17900.390625; 9.52937E-5
17906.250000; 9.51462E-5
17912.109375; 9.68116E-5
17917.968750; 9.97621E-5
17923.828125; 9.58098E-5
17929.687500; 1.00369E-4
17935.546875; 1.05572E-4
17941.406250; 9.94697E-5
17947.265625; 1.01951E-4
17953.125000; 9.04780E-5
17958.984375; 9.71004E-5
17964.843750; 9.89602E-5
17970.703125; 9.91553E-5
17976.562500; 1.00213E-4
17982.421875; 9.76387E-5
17988.281250; 1.04252E-4
17994.140625; 9.64210E-5
18000.000000; 9.44004E-5
18005.859375; 9.08237E-5
18011.718750; 9.03909E-5
18017.578125; 9.58301E-5
18023.437500; 9.78744E-5
18029.296875; 9.21747E-5
18035.156250; 1.00527E-4
18041.015625; 9.68552E-5
18046.875000; 9.30119E-5
18052.734375; 1.03617E-4
18058.593750; 1.05223E-4
18064.453125; 9.55782E-5
18070.312500; 1.06099E-4
18076.171875; 1.08388E-4
18082.031250; 1.06906E-4
18087.890625; 1.08211E-4
18093.750000; 1.07975E-4
18099.609375; 9.95107E-5
18105.468750; 9.31136E-5
18111.328125; 9.42273E-5
18117.187500; 9.67102E-5
18123.046875; 1.03696E-4
18128.906250; 1.06334E-4
18134.765625; 1.04821E-4
18140.625000; 9.68596E-5
18146.484375; 1.00094E-4
18152.343750; 9.29951E-5
18158.203125; 1.04282E-4
18164.062500; 1.01554E-4
18169.921875; 9.33315E-5
18175.781250; 9.59148E-5
18181.640625; 9.56098E-5
18187.500000; 9.71303E-5
18193.359375; 1.01423E-4
18199.218750; 9.04214E-5
18205.078125; 8.56108E-5
18210.937500; 8.80193E-5
18216.796875; 1.01674E-4
18222.656250; 9.94422E-5
18228.515625; 9.32377E-5
18234.375000; 9.95186E-5
18240.234375; 1.00495E-4
18246.093750; 9.10335E-5
18251.953125; 9.39244E-5
18257.812500; 9.31292E-5
18263.671875; 1.01095E-4
18269.531250; 9.69304E-5
18275.390625; 9.50326E-5
18281.250000; 9.62611E-5
18287.109375; 9.24142E-5
18292.968750; 9.65510E-5
18298.828125; 9.56483E-5
18304.687500; 8.55071E-5
18310.546875; 8.56434E-5
18316.406250; 9.16777E-5
18322.265625; 8.89936E-5
18328.125000; 9.98532E-5
18333.984375; 9.70345E-5
18339.843750; 8.95028E-5
18345.703125; 9.88269E-5
18351.562500; 9.62953E-5
18357.421875; 1.06786E-4
18363.281250; 1.07139E-4
18369.140625; 9.49156E-5
18375.000000; 9.63366E-5
18380.859375; 9.95094E-5
18386.718750; 9.33135E-5
18392.578125; 9.51528E-5
18398.437500; 9.49268E-5
18404.296875; 8.99703E-5
18410.156250; 8.84605E-5
18416.015625; 8.93977E-5
18421.875000; 1.01807E-4
18427.734375; 1.06756E-4
18433.593750; 1.01615E-4
18439.453125; 9.78512E-5
18445.312500; 9.54201E-5
18451.171875; 9.82348E-5
18457.031250; 9.76375E-5
18462.890625; 9.83648E-5
18468.750000; 9.36424E-5
18474.609375; 9.26442E-5
18480.468750; 9.31935E-5
18486.328125; 8.46878E-5
18492.187500; 8.70936E-5
18498.046875; 9.36825E-5
18503.906250; 9.26954E-5
18509.765625; 9.75207E-5
18515.625000; 9.69601E-5
18521.484375; 9.73762E-5
18527.343750; 9.64612E-5
18533.203125; 1.08003E-4
18539.062500; 1.01424E-4
18544.921875; 9.11729E-5
18550.781250; 9.44570E-5
18556.640625; 9.97829E-5
18562.500000; 1.03088E-4
18568.359375; 1.02335E-4
18574.218750; 9.86608E-5
18580.078125; 9.24966E-5
18585.937500; 9.66370E-5
18591.796875; 1.02851E-4
18597.656250; 9.21653E-5
18603.515625; 9.29847E-5
18609.375000; 1.11887E-4
18615.234375; 1.04364E-4
18621.093750; 9.26668E-5
18626.953125; 8.82474E-5
18632.812500; 9.59819E-5
18638.671875; 1.02717E-4
18644.531250; 1.02386E-4
18650.390625; 1.04589E-4
18656.250000; 1.04916E-4
18662.109375; 9.14592E-5
18667.968750; 9.73922E-5
18673.828125; 1.01603E-4
18679.687500; 1.04156E-4
18685.546875; 1.13273E-4
18691.406250; 1.06783E-4
18697.265625; 1.14325E-4
18703.125000; 1.02765E-4
18708.984375; 9.80971E-5
18714.843750; 9.23136E-5
18720.703125; 8.77261E-5
18726.562500; 8.29147E-5
18732.421875; 9.10497E-5
18738.281250; 9.90590E-5
18744.140625; 9.83875E-5
18750.000000; 9.63452E-5
18755.859375; 1.00805E-4
18761.718750; 1.00532E-4
18767.578125; 1.02999E-4
18773.437500; 1.07873E-4
18779.296875; 1.02491E-4
18785.156250; 1.02600E-4
18791.015625; 1.04696E-4
18796.875000; 1.07766E-4
18802.734375; 9.68063E-5
18808.593750; 9.98811E-5
18814.453125; 9.64973E-5
18820.312500; 1.00297E-4
18826.171875; 9.28655E-5
18832.031250; 9.34045E-5
18837.890625; 9.87357E-5
18843.750000; 1.00840E-4
18849.609375; 9.58872E-5
18855.468750; 1.04991E-4
18861.328125; 1.08832E-4
18867.187500; 1.03758E-4
18873.046875; 9.58072E-5
18878.906250; 9.21495E-5
18884.765625; 9.48903E-5
18890.625000; 1.00091E-4
18896.484375; 1.09340E-4
18902.343750; 1.09665E-4
18908.203125; 1.12123E-4
18914.062500; 1.10289E-4
18919.921875; 1.00557E-4
18925.781250; 9.56353E-5
18931.640625; 1.01393E-4
18937.500000; 9.52710E-5
18943.359375; 9.71265E-5
18949.218750; 1.05538E-4
18955.078125; 1.06083E-4
18960.937500; 1.00713E-4
18966.796875; 9.69652E-5
18972.656250; 9.31378E-5
18978.515625; 9.11886E-5
18984.375000; 9.23410E-5
18990.234375; 8.92829E-5
18996.093750; 9.42845E-5
19001.953125; 9.58242E-5
19007.812500; 8.77725E-5
19013.671875; 9.20202E-5
19019.531250; 9.73572E-5
19025.390625; 1.00720E-4
19031.250000; 9.75933E-5
19037.109375; 9.25453E-5
19042.968750; 9.46477E-5
19048.828125; 9.64302E-5
19054.687500; 1.02079E-4
19060.546875; 1.01380E-4
19066.406250; 9.67072E-5
19072.265625; 1.06432E-4
19078.125000; 9.97198E-5
19083.984375; 9.77185E-5
19089.843750; 1.02264E-4
19095.703125; 1.11548E-4
19101.562500; 1.01336E-4
19107.421875; 9.65840E-5
19113.281250; 1.06445E-4
19119.140625; 9.70864E-5
19125.000000; 9.14939E-5
19130.859375; 9.86158E-5
19136.718750; 1.00188E-4
19142.578125; 1.00281E-4
19148.437500; 9.66322E-5
19154.296875; 9.79142E-5
19160.156250; 1.04120E-4
19166.015625; 9.91352E-5
19171.875000; 1.00470E-4
19177.734375; 8.42285E-5
19183.593750; 9.04206E-5
19189.453125; 1.05044E-4
19195.312500; 1.04033E-4
19201.171875; 1.07158E-4
19207.031250; 1.02962E-4
19212.890625; 9.69473E-5
19218.750000; 9.51100E-5
19224.609375; 9.91088E-5
19230.468750; 8.89626E-5
19236.328125; 9.48623E-5
19242.187500; 9.63065E-5
19248.046875; 9.56835E-5
19253.906250; 8.78077E-5
19259.765625; 1.01820E-4
19265.625000; 1.09711E-4
19271.484375; 1.11911E-4
19277.343750; 1.01311E-4
19283.203125; 1.05763E-4
19289.062500; 1.05601E-4
19294.921875; 9.46229E-5
19300.781250; 9.96292E-5
19306.640625; 1.01636E-4
19312.500000; 9.39850E-5
19318.359375; 9.83805E-5
19324.218750; 1.00439E-4
19330.078125; 9.54946E-5
19335.937500; 1.03734E-4
19341.796875; 1.07477E-4
19347.656250; 1.02796E-4
19353.515625; 9.59985E-5
19359.375000; 9.34915E-5
19365.234375; 9.10156E-5
19371.093750; 1.00033E-4
19376.953125; 9.99478E-5
19382.812500; 9.71485E-5
19388.671875; 8.67117E-5
19394.531250; 1.03595E-4
19400.390625; 9.90881E-5
19406.250000; 8.91019E-5
19412.109375; 9.05947E-5
19417.968750; 9.60688E-5
19423.828125; 8.78642E-5
19429.687500; 9.06384E-5
19435.546875; 9.25890E-5
19441.406250; 9.14987E-5
19447.265625; 9.65648E-5
19453.125000; 1.03481E-4
19458.984375; 9.84162E-5
19464.843750; 9.32077E-5
19470.703125; 9.71092E-5
19476.562500; 9.47539E-5
19482.421875; 9.77210E-5
19488.281250; 8.84099E-5
19494.140625; 8.93299E-5
19500.000000; 9.95912E-5
19505.859375; 9.93801E-5
19511.718750; 9.66809E-5
19517.578125; 8.62848E-5
19523.437500; 8.25359E-5
19529.296875; 8.06476E-5
19535.156250; 8.34112E-5
19541.015625; 8.28462E-5
19546.875000; 9.44228E-5
19552.734375; 9.72449E-5
19558.593750; 9.56483E-5
19564.453125; 9.37457E-5
19570.312500; 1.00428E-4
19576.171875; 1.04842E-4
19582.031250; 9.97363E-5
19587.890625; 9.49113E-5
19593.750000; 9.29837E-5
19599.609375; 9.83845E-5
19605.468750; 1.05811E-4
19611.328125; 1.05612E-4
19617.187500; 1.04282E-4
19623.046875; 9.68470E-5
19628.906250; 9.46337E-5
19634.765625; 9.66219E-5
19640.625000; 9.33519E-5
19646.484375; 9.44484E-5
19652.343750; 1.05664E-4
19658.203125; 9.82308E-5
19664.062500; 9.81569E-5
19669.921875; 9.88560E-5
19675.781250; 9.40802E-5
19681.640625; 1.01516E-4
19687.500000; 9.99720E-5
19693.359375; 9.98722E-5
19699.218750; 8.68098E-5
19705.078125; 9.28518E-5
19710.937500; 9.42617E-5
19716.796875; 1.04617E-4
19722.656250; 9.91750E-5
19728.515625; 8.43269E-5
19734.375000; 9.07654E-5
19740.234375; 9.64176E-5
19746.093750; 8.45791E-5
19751.953125; 8.51852E-5
19757.812500; 9.84473E-5
19763.671875; 9.40368E-5
19769.531250; 9.79711E-5
19775.390625; 1.04036E-4
19781.250000; 1.06690E-4
19787.109375; 9.63955E-5
19792.968750; 9.42645E-5
19798.828125; 9.37482E-5
19804.687500; 9.95565E-5
19810.546875; 1.00461E-4
19816.406250; 9.80005E-5
19822.265625; 1.00053E-4
19828.125000; 9.93654E-5
19833.984375; 9.50529E-5
19839.843750; 9.64603E-5
19845.703125; 1.00049E-4
19851.562500; 9.94190E-5
19857.421875; 9.97659E-5
19863.281250; 9.67306E-5
19869.140625; 9.63979E-5
19875.000000; 9.77537E-5
19880.859375; 9.69927E-5
19886.718750; 9.04225E-5
19892.578125; 9.43413E-5
19898.437500; 9.40942E-5
19904.296875; 9.63330E-5
19910.156250; 9.59436E-5
19916.015625; 9.60925E-5
19921.875000; 1.02703E-4
19927.734375; 9.98158E-5
19933.593750; 1.02723E-4
19939.453125; 9.94163E-5
19945.312500; 9.42985E-5
19951.171875; 1.01783E-4
19957.031250; 9.77420E-5
19962.890625; 9.24515E-5
19968.750000; 9.23067E-5
19974.609375; 9.62987E-5
19980.468750; 9.34771E-5
19986.328125; 9.09587E-5
19992.187500; 9.40300E-5
19998.046875; 9.64722E-5
20003.906250; 9.01410E-5
20009.765625; 8.90952E-5
20015.625000; 8.45870E-5
20021.484375; 8.40628E-5
20027.343750; 9.00190E-5
20033.203125; 1.02873E-4
20039.062500; 1.04224E-4
20044.921875; 9.60455E-5
20050.781250; 9.02781E-5
20056.640625; 9.14036E-5
20062.500000; 9.60482E-5
20068.359375; 9.96650E-5
20074.218750; 9.80961E-5
20080.078125; 9.50377E-5
20085.937500; 9.35255E-5
20091.796875; 9.51727E-5
20097.656250; 9.04404E-5
20103.515625; 9.15558E-5
20109.375000; 9.38122E-5
20115.234375; 9.27070E-5
20121.093750; 9.31580E-5
20126.953125; 9.24819E-5
20132.812500; 1.04289E-4
20138.671875; 1.02595E-4
20144.531250; 9.33611E-5
20150.390625; 9.51460E-5
20156.250000; 1.03224E-4
20162.109375; 9.51372E-5
20167.968750; 1.00219E-4
20173.828125; 1.01544E-4
20179.687500; 9.79563E-5
20185.546875; 9.71107E-5
20191.406250; 8.91947E-5
20197.265625; 9.17832E-5
20203.125000; 9.54893E-5
20208.984375; 8.98829E-5
20214.843750; 9.62924E-5
20220.703125; 9.86634E-5
20226.562500; 1.00323E-4
20232.421875; 1.12817E-4
20238.281250; 9.58562E-5
20244.140625; 9.69716E-5
20250.000000; 1.02223E-4
20255.859375; 9.85955E-5
20261.718750; 9.75408E-5
20267.578125; 1.00166E-4
20273.437500; 9.64513E-5
20279.296875; 9.24162E-5
20285.156250; 1.02486E-4
20291.015625; 1.04335E-4
20296.875000; 1.06910E-4
20302.734375; 1.06052E-4
20308.593750; 9.97670E-5
20314.453125; 9.96829E-5
20320.312500; 1.03871E-4
20326.171875; 1.00616E-4
20332.031250; 9.24896E-5
20337.890625; 9.48936E-5
20343.750000; 9.67505E-5
20349.609375; 9.47634E-5
20355.468750; 1.01897E-4
20361.328125; 9.31109E-5
20367.187500; 9.41734E-5
20373.046875; 1.00451E-4
20378.906250; 1.03003E-4
20384.765625; 1.05278E-4
20390.625000; 9.61128E-5
20396.484375; 9.70345E-5
20402.343750; 9.91555E-5
20408.203125; 1.12704E-4
20414.062500; 9.79191E-5
20419.921875; 9.52387E-5
20425.781250; 1.01639E-4
20431.640625; 9.59092E-5
20437.500000; 1.08120E-4
20443.359375; 1.09371E-4
20449.218750; 9.89689E-5
20455.078125; 9.46234E-5
20460.937500; 1.01053E-4
20466.796875; 9.66579E-5
20472.656250; 9.68667E-5
20478.515625; 9.18308E-5
20484.375000; 9.01544E-5
20490.234375; 9.66545E-5
20496.093750; 9.83009E-5
20501.953125; 1.01740E-4
20507.812500; 9.26587E-5
20513.671875; 9.44837E-5
20519.531250; 9.94228E-5
20525.390625; 1.03331E-4
20531.250000; 9.92628E-5
20537.109375; 9.25338E-5
20542.968750; 9.03839E-5
20548.828125; 1.02931E-4
20554.687500; 1.07278E-4
20560.546875; 1.03155E-4
20566.406250; 9.70547E-5
20572.265625; 9.93177E-5
20578.125000; 9.84128E-5
20583.984375; 1.07669E-4
20589.843750; 1.00371E-4
20595.703125; 9.96544E-5
20601.562500; 9.84203E-5
20607.421875; 9.71305E-5
20613.281250; 1.01553E-4
20619.140625; 1.00276E-4
20625.000000; 1.04998E-4
20630.859375; 1.10831E-4
20636.718750; 1.06703E-4
20642.578125; 9.96456E-5
20648.437500; 1.00740E-4
20654.296875; 9.68742E-5
20660.156250; 9.18101E-5
20666.015625; 9.23259E-5
20671.875000; 9.70728E-5
20677.734375; 9.64442E-5
20683.593750; 9.09705E-5
20689.453125; 8.48343E-5
20695.312500; 9.03554E-5
20701.171875; 9.67802E-5
20707.031250; 9.85309E-5
20712.890625; 9.88954E-5
20718.750000; 9.36548E-5
20724.609375; 1.01304E-4
20730.468750; 1.01420E-4
20736.328125; 1.02988E-4
20742.187500; 9.92951E-5
20748.046875; 9.49446E-5
20753.906250; 9.90151E-5
20759.765625; 9.90456E-5
20765.625000; 8.59786E-5
20771.484375; 8.22033E-5
20777.343750; 9.53185E-5
20783.203125; 9.50593E-5
20789.062500; 9.73835E-5
20794.921875; 9.34734E-5
20800.781250; 9.14590E-5
20806.640625; 8.87110E-5
20812.500000; 9.91586E-5
20818.359375; 1.03420E-4
20824.218750; 9.88295E-5
20830.078125; 9.34724E-5
20835.937500; 9.35863E-5
20841.796875; 9.88664E-5
20847.656250; 9.77960E-5
20853.515625; 9.80431E-5
20859.375000; 1.03371E-4
20865.234375; 9.90496E-5
20871.093750; 9.03680E-5
20876.953125; 8.49780E-5
20882.812500; 9.34977E-5
20888.671875; 9.33506E-5
20894.531250; 9.16657E-5
20900.390625; 9.80445E-5
20906.250000; 1.00208E-4
20912.109375; 1.02037E-4
20917.968750; 9.58701E-5
20923.828125; 9.10235E-5
20929.687500; 9.65887E-5
20935.546875; 9.13845E-5
20941.406250; 9.83595E-5
20947.265625; 9.42397E-5
20953.125000; 9.52945E-5
20958.984375; 1.03849E-4
20964.843750; 1.00805E-4
20970.703125; 8.90936E-5
20976.562500; 1.00353E-4
20982.421875; 1.01892E-4
20988.281250; 1.03532E-4
20994.140625; 1.00907E-4
21000.000000; 9.47781E-5
21005.859375; 9.93972E-5
21011.718750; 9.57997E-5
21017.578125; 8.92078E-5
21023.437500; 9.70693E-5
21029.296875; 9.94688E-5
21035.156250; 9.08899E-5
21041.015625; 9.63080E-5
21046.875000; 9.46268E-5
21052.734375; 9.86275E-5
21058.593750; 1.06606E-4
21064.453125; 9.54908E-5
21070.312500; 8.69990E-5
21076.171875; 8.37869E-5
21082.031250; 9.37701E-5
21087.890625; 1.03036E-4
21093.750000; 1.04400E-4
21099.609375; 1.00704E-4
21105.468750; 9.86323E-5
21111.328125; 9.52890E-5
21117.187500; 9.88151E-5
21123.046875; 1.05794E-4
21128.906250; 1.04913E-4
21134.765625; 9.87958E-5
21140.625000; 9.23319E-5
21146.484375; 9.01599E-5
21152.343750; 8.50417E-5
21158.203125; 9.66591E-5
21164.062500; 9.56025E-5
21169.921875; 1.02608E-4
21175.781250; 9.71798E-5
21181.640625; 9.86159E-5
21187.500000; 9.15151E-5
21193.359375; 8.98753E-5
21199.218750; 8.64600E-5
21205.078125; 1.00648E-4
21210.937500; 1.04001E-4
21216.796875; 9.00416E-5
21222.656250; 9.60237E-5
21228.515625; 1.07570E-4
21234.375000; 1.08388E-4
21240.234375; 9.65574E-5
21246.093750; 9.10641E-5
21251.953125; 1.01096E-4
21257.812500; 1.00670E-4
21263.671875; 1.05823E-4
21269.531250; 9.86308E-5
21275.390625; 9.77925E-5
21281.250000; 1.07541E-4
21287.109375; 9.36864E-5
21292.968750; 8.34458E-5
21298.828125; 8.97814E-5
21304.687500; 9.99020E-5
21310.546875; 9.67336E-5
21316.406250; 9.66288E-5
21322.265625; 1.07228E-4
21328.125000; 9.30654E-5
21333.984375; 9.72865E-5
21339.843750; 1.02459E-4
21345.703125; 1.11317E-4
21351.562500; 9.83897E-5
21357.421875; 9.81361E-5
21363.281250; 9.60465E-5
21369.140625; 1.08397E-4
21375.000000; 9.34842E-5
21380.859375; 9.76004E-5
21386.718750; 9.65028E-5
21392.578125; 9.98723E-5
21398.437500; 9.56206E-5
21404.296875; 9.79274E-5
21410.156250; 9.22532E-5
21416.015625; 8.72015E-5
21421.875000; 8.56743E-5
21427.734375; 9.60263E-5
21433.593750; 1.03809E-4
21439.453125; 1.05411E-4
21445.312500; 9.29628E-5
21451.171875; 8.71510E-5
21457.031250; 9.22122E-5
21462.890625; 9.22057E-5
21468.750000; 8.71128E-5
21474.609375; 9.12907E-5
21480.468750; 9.50606E-5
21486.328125; 8.99555E-5
21492.187500; 8.75539E-5
21498.046875; 9.55591E-5
21503.906250; 1.00660E-4
21509.765625; 1.03531E-4
21515.625000; 9.67472E-5
21521.484375; 8.62269E-5
21527.343750; 8.55855E-5
21533.203125; 9.40971E-5
21539.062500; 9.98942E-5
21544.921875; 1.00125E-4
21550.781250; 8.85616E-5
21556.640625; 9.18139E-5
21562.500000; 8.88576E-5
21568.359375; 9.49368E-5
21574.218750; 1.00087E-4
21580.078125; 9.61487E-5
21585.937500; 9.41108E-5
21591.796875; 9.57700E-5
21597.656250; 1.04565E-4
21603.515625; 1.05737E-4
21609.375000; 9.81680E-5
21615.234375; 1.03668E-4
21621.093750; 8.99646E-5
21626.953125; 9.22841E-5
21632.812500; 9.88077E-5
21638.671875; 9.95255E-5
21644.531250; 9.58733E-5
21650.390625; 9.48066E-5
21656.250000; 1.02735E-4
21662.109375; 1.02495E-4
21667.968750; 8.46390E-5
21673.828125; 9.17148E-5
21679.687500; 1.01267E-4
21685.546875; 9.62875E-5
21691.406250; 9.18256E-5
21697.265625; 9.20036E-5
21703.125000; 9.62412E-5
21708.984375; 1.05380E-4
21714.843750; 1.07103E-4
21720.703125; 9.91189E-5
21726.562500; 9.40337E-5
21732.421875; 9.98387E-5
21738.281250; 9.38869E-5
21744.140625; 9.18154E-5
21750.000000; 1.02513E-4
21755.859375; 9.28441E-5
21761.718750; 8.81238E-5
21767.578125; 8.96352E-5
21773.437500; 8.50642E-5
21779.296875; 9.28231E-5
21785.156250; 9.16587E-5
21791.015625; 9.96566E-5
21796.875000; 1.02662E-4
21802.734375; 9.53053E-5
21808.593750; 9.43933E-5
21814.453125; 8.56595E-5
21820.312500; 9.30394E-5
21826.171875; 9.31202E-5
21832.031250; 9.50794E-5
21837.890625; 1.06387E-4
21843.750000; 1.00215E-4
21849.609375; 9.68867E-5
21855.468750; 8.91827E-5
21861.328125; 8.61134E-5
21867.187500; 8.98082E-5
21873.046875; 9.34929E-5
21878.906250; 9.32737E-5
21884.765625; 9.39491E-5
21890.625000; 8.58324E-5
21896.484375; 8.72324E-5
21902.343750; 9.40520E-5
21908.203125; 8.75033E-5
21914.062500; 9.25985E-5
21919.921875; 9.67106E-5
21925.781250; 9.62295E-5
21931.640625; 9.75963E-5
21937.500000; 9.18682E-5
21943.359375; 9.55307E-5
21949.218750; 8.95503E-5
21955.078125; 9.07231E-5
21960.937500; 9.01019E-5
21966.796875; 9.43317E-5
21972.656250; 9.79606E-5
21978.515625; 8.64571E-5
21984.375000; 8.58782E-5
21990.234375; 9.19932E-5
21996.093750; 9.54826E-5
22001.953125; 1.00441E-4
22007.812500; 9.97323E-5
22013.671875; 1.00912E-4
22019.531250; 1.01186E-4
22025.390625; 9.71439E-5
22031.250000; 8.29565E-5
22037.109375; 8.75935E-5
22042.968750; 1.02294E-4
22048.828125; 9.69831E-5
22054.687500; 9.33614E-5
22060.546875; 9.29348E-5
22066.406250; 9.45099E-5
22072.265625; 8.03218E-5
22078.125000; 8.62304E-5
22083.984375; 9.12546E-5
22089.843750; 7.89806E-5
22095.703125; 8.91600E-5
22101.562500; 9.39165E-5
22107.421875; 9.17050E-5
22113.281250; 9.03061E-5
22119.140625; 9.18444E-5
22125.000000; 1.01077E-4
22130.859375; 1.05664E-4
22136.718750; 9.67156E-5
22142.578125; 9.05238E-5
22148.437500; 9.32284E-5
22154.296875; 9.43055E-5
22160.156250; 9.16302E-5
22166.015625; 9.69473E-5
22171.875000; 9.51146E-5
22177.734375; 9.48069E-5
22183.593750; 9.93278E-5
22189.453125; 9.26026E-5
22195.312500; 9.70097E-5
22201.171875; 9.89896E-5
22207.031250; 9.48442E-5
22212.890625; 8.99042E-5
22218.750000; 9.42503E-5
22224.609375; 8.41021E-5
22230.468750; 8.25606E-5
22236.328125; 9.05863E-5
22242.187500; 9.44127E-5
22248.046875; 9.73986E-5
22253.906250; 1.02437E-4
22259.765625; 1.03877E-4
22265.625000; 1.05582E-4
22271.484375; 9.48050E-5
22277.343750; 8.09677E-5
22283.203125; 8.60377E-5
22289.062500; 8.72529E-5
22294.921875; 8.65980E-5
22300.781250; 9.40908E-5
22306.640625; 9.50787E-5
22312.500000; 9.39833E-5
22318.359375; 9.07355E-5
22324.218750; 8.34869E-5
22330.078125; 8.97693E-5
22335.937500; 9.06213E-5
22341.796875; 8.24983E-5
22347.656250; 8.55711E-5
22353.515625; 8.47961E-5
22359.375000; 8.32952E-5
22365.234375; 9.86042E-5
22371.093750; 9.89502E-5
22376.953125; 8.39805E-5
22382.812500; 1.00576E-4
22388.671875; 1.04404E-4
22394.531250; 9.58754E-5
22400.390625; 8.84359E-5
22406.250000; 8.98761E-5
22412.109375; 9.11210E-5
22417.968750; 8.42504E-5
22423.828125; 8.39628E-5
22429.687500; 8.80361E-5
22435.546875; 9.91772E-5
22441.406250; 1.00959E-4
22447.265625; 9.34857E-5
22453.125000; 9.34714E-5
22458.984375; 8.99624E-5
22464.843750; 9.31756E-5
22470.703125; 9.81991E-5
22476.562500; 9.48271E-5
22482.421875; 9.07650E-5
22488.281250; 8.78251E-5
22494.140625; 8.95111E-5
22500.000000; 8.89408E-5
22505.859375; 8.33732E-5
22511.718750; 8.89491E-5
22517.578125; 8.63418E-5
22523.437500; 8.55717E-5
22529.296875; 8.47554E-5
22535.156250; 7.92388E-5
22541.015625; 7.71281E-5
22546.875000; 8.38924E-5
22552.734375; 8.55738E-5
22558.593750; 9.43498E-5
22564.453125; 1.05728E-4
22570.312500; 1.02656E-4
22576.171875; 7.97047E-5
22582.031250; 7.24453E-5
22587.890625; 8.14428E-5
22593.750000; 8.09277E-5
22599.609375; 8.43799E-5
22605.468750; 9.50052E-5
22611.328125; 9.85427E-5
22617.187500; 9.16265E-5
22623.046875; 9.11652E-5
22628.906250; 8.63150E-5
22634.765625; 8.61484E-5
22640.625000; 8.47372E-5
22646.484375; 8.70780E-5
22652.343750; 8.42792E-5
22658.203125; 9.45735E-5
22664.062500; 8.72800E-5
22669.921875; 8.76627E-5
22675.781250; 8.65055E-5
22681.640625; 8.40459E-5
22687.500000; 8.54323E-5
22693.359375; 8.60814E-5
22699.218750; 8.67063E-5
22705.078125; 8.04824E-5
22710.937500; 8.46778E-5
22716.796875; 8.55805E-5
22722.656250; 8.79483E-5
22728.515625; 8.41209E-5
22734.375000; 7.94842E-5
22740.234375; 7.90462E-5
22746.093750; 9.12968E-5
22751.953125; 9.03401E-5
22757.812500; 8.19260E-5
22763.671875; 8.29594E-5
22769.531250; 7.46878E-5
22775.390625; 7.83992E-5
22781.250000; 7.71361E-5
22787.109375; 7.52918E-5
22792.968750; 7.19579E-5
22798.828125; 7.33458E-5
22804.687500; 7.64376E-5
22810.546875; 8.23339E-5
22816.406250; 8.01980E-5
22822.265625; 8.51550E-5
22828.125000; 8.07413E-5
22833.984375; 8.52879E-5
22839.843750; 8.99830E-5
22845.703125; 8.12135E-5
22851.562500; 7.80975E-5
22857.421875; 6.96726E-5
22863.281250; 7.55916E-5
22869.140625; 7.47642E-5
22875.000000; 7.24730E-5
22880.859375; 7.73075E-5
22886.718750; 7.79666E-5
22892.578125; 7.96032E-5
22898.437500; 7.06952E-5
22904.296875; 7.19098E-5
22910.156250; 7.31313E-5
22916.015625; 7.21269E-5
22921.875000; 8.06806E-5
22927.734375; 7.89488E-5
22933.593750; 7.16885E-5
22939.453125; 7.06456E-5
22945.312500; 7.26027E-5
22951.171875; 6.95744E-5
22957.031250; 6.82951E-5
22962.890625; 6.69506E-5
22968.750000; 7.57074E-5
22974.609375; 7.45052E-5
22980.468750; 6.88210E-5
22986.328125; 7.11275E-5
22992.187500; 8.01260E-5
22998.046875; 7.43909E-5
23003.906250; 6.99244E-5
23009.765625; 7.73582E-5
23015.625000; 7.61870E-5
23021.484375; 7.24224E-5
23027.343750; 7.18374E-5
23033.203125; 7.74028E-5
23039.062500; 7.57923E-5
23044.921875; 6.96786E-5
23050.781250; 6.50696E-5
23056.640625; 5.92249E-5
23062.500000; 6.73975E-5
23068.359375; 7.20974E-5
23074.218750; 6.17493E-5
23080.078125; 5.84747E-5
23085.937500; 6.35223E-5
23091.796875; 7.07885E-5
23097.656250; 6.38455E-5
23103.515625; 6.48947E-5
23109.375000; 7.44893E-5
23115.234375; 7.39765E-5
23121.093750; 6.77403E-5
23126.953125; 6.57281E-5
23132.812500; 7.07558E-5
23138.671875; 6.21276E-5
23144.531250; 5.71636E-5
23150.390625; 6.16754E-5
23156.250000; 6.24199E-5
23162.109375; 6.19024E-5
23167.968750; 5.82473E-5
23173.828125; 5.87228E-5
23179.687500; 6.59305E-5
23185.546875; 6.78303E-5
23191.406250; 6.55457E-5
23197.265625; 6.12376E-5
23203.125000; 5.76440E-5
23208.984375; 6.27929E-5
23214.843750; 5.87806E-5
23220.703125; 5.79530E-5
23226.562500; 5.63986E-5
23232.421875; 5.53389E-5
23238.281250; 5.86874E-5
23244.140625; 5.67431E-5
23250.000000; 6.02502E-5
23255.859375; 6.66716E-5
23261.718750; 5.64519E-5
23267.578125; 5.70042E-5
23273.437500; 5.67327E-5
23279.296875; 6.33932E-5
23285.156250; 5.94975E-5
23291.015625; 5.70079E-5
23296.875000; 5.60213E-5
23302.734375; 5.28521E-5
23308.593750; 5.41305E-5
23314.453125; 5.57891E-5
23320.312500; 5.49017E-5
23326.171875; 5.91850E-5
23332.031250; 5.72389E-5
23337.890625; 5.34508E-5
23343.750000; 5.80829E-5
23349.609375; 5.72916E-5
23355.468750; 5.20166E-5
23361.328125; 5.60442E-5
23367.187500; 5.42649E-5
23373.046875; 4.82412E-5
23378.906250; 5.45419E-5
23384.765625; 5.45939E-5
23390.625000; 5.34250E-5
23396.484375; 4.97433E-5
23402.343750; 5.21714E-5
23408.203125; 5.30545E-5
23414.062500; 4.94058E-5
23419.921875; 5.07741E-5
23425.781250; 5.16257E-5
23431.640625; 5.49080E-5
23437.500000; 5.42889E-5
23443.359375; 5.32294E-5
23449.218750; 5.11229E-5
23455.078125; 5.31660E-5
23460.937500; 5.40962E-5
23466.796875; 5.36660E-5
23472.656250; 4.74512E-5
23478.515625; 4.77448E-5
23484.375000; 4.37363E-5
23490.234375; 4.38454E-5
23496.093750; 4.70803E-5
23501.953125; 4.77322E-5
23507.812500; 4.85769E-5
23513.671875; 4.57180E-5
23519.531250; 4.39913E-5
23525.390625; 4.84794E-5
23531.250000; 4.99472E-5
23537.109375; 4.26823E-5
23542.968750; 3.93920E-5
23548.828125; 4.36542E-5
23554.687500; 4.94367E-5
23560.546875; 4.53610E-5
23566.406250; 4.06484E-5
23572.265625; 4.37217E-5
23578.125000; 4.55763E-5
23583.984375; 4.44472E-5
23589.843750; 4.08018E-5
23595.703125; 4.40171E-5
23601.562500; 4.12890E-5
23607.421875; 4.18295E-5
23613.281250; 4.01039E-5
23619.140625; 4.06597E-5
23625.000000; 4.36067E-5
23630.859375; 3.94703E-5
23636.718750; 3.97979E-5
23642.578125; 4.03884E-5
23648.437500; 4.04902E-5
23654.296875; 4.44886E-5
23660.156250; 4.03204E-5
23666.015625; 3.76832E-5
23671.875000; 3.69496E-5
23677.734375; 3.44923E-5
23683.593750; 4.16260E-5
23689.453125; 4.65990E-5
23695.312500; 4.10106E-5
23701.171875; 3.95919E-5
23707.031250; 3.86533E-5
23712.890625; 3.75309E-5
23718.750000; 3.45485E-5
23724.609375; 3.56450E-5
23730.468750; 3.80544E-5
23736.328125; 3.75203E-5
23742.187500; 3.51815E-5
23748.046875; 3.90018E-5
23753.906250; 3.73842E-5
23759.765625; 3.70656E-5
23765.625000; 3.91252E-5
23771.484375; 3.50377E-5
23777.343750; 3.39537E-5
23783.203125; 3.75376E-5
23789.062500; 4.06517E-5
23794.921875; 3.82052E-5
23800.781250; 3.71926E-5
23806.640625; 3.74515E-5
23812.500000; 3.55692E-5
23818.359375; 3.43040E-5
23824.218750; 3.46946E-5
23830.078125; 3.42992E-5
23835.937500; 3.41963E-5
23841.796875; 3.48908E-5
23847.656250; 3.62503E-5
23853.515625; 3.58239E-5
23859.375000; 3.50902E-5
23865.234375; 3.46848E-5
23871.093750; 3.35584E-5
23876.953125; 3.38257E-5
23882.812500; 3.38186E-5
23888.671875; 3.56038E-5
23894.531250; 3.44751E-5
23900.390625; 3.67580E-5
23906.250000; 3.78165E-5
23912.109375; 3.42755E-5
23917.968750; 3.30794E-5
23923.828125; 3.31170E-5
23929.687500; 3.41136E-5
23935.546875; 3.25911E-5
23941.406250; 3.05696E-5
23947.265625; 2.99808E-5
23953.125000; 3.64140E-5
23958.984375; 3.65457E-5
23964.843750; 3.75717E-5
23970.703125; 3.69236E-5
23976.562500; 3.38797E-5
23982.421875; 3.55780E-5
23988.281250; 3.43085E-5
23994.140625; 3.00373E-5
